Frequency (Hz)	Level (dB)
0.976562	-42.980671
1.953125	-42.021435
2.929688	-41.678932
3.906250	-42.466526
4.882812	-43.418308
5.859375	-43.971142
6.835938	-41.506798
7.812500	-41.829659
8.789062	-43.102871
9.765625	-44.464676
10.742188	-43.837147
11.718750	-44.035942
12.695312	-42.782463
13.671875	-43.426872
14.648438	-43.802635
15.625000	-42.255413
16.601562	-41.377384
17.578125	-42.251259
18.554688	-42.704292
19.531250	-43.158829
20.507812	-43.319260
21.484375	-43.033871
22.460938	-41.301537
23.437500	-42.988144
24.414062	-41.210846
25.390625	-42.977642
26.367188	-42.796268
27.343750	-41.390133
28.320312	-44.519859
29.296875	-43.645222
30.273438	-42.145176
31.250000	-42.293766
32.226562	-44.194733
33.203125	-41.824070
34.179688	-43.295898
35.156250	-43.568489
36.132812	-43.081310
37.109375	-43.337826
38.085938	-43.839474
39.062500	-43.333508
40.039062	-42.825775
41.015625	-43.466606
41.992188	-42.826530
42.968750	-41.899857
43.945312	-43.874813
44.921875	-42.014774
45.898438	-41.894222
46.875000	-42.960152
47.851562	-43.346664
48.828125	-42.815727
49.804688	-43.074192
50.781250	-42.173962
51.757812	-43.348511
52.734375	-43.356941
53.710938	-42.651917
54.687500	-42.628326
55.664062	-44.120583
56.640625	-42.658516
57.617188	-42.472317
58.593750	-43.903389
59.570312	-42.830708
60.546875	-43.335133
61.523438	-43.933830
62.500000	-44.577763
63.476562	-43.295689
64.453125	-43.313313
65.429688	-42.935745
66.406250	-42.642136
67.382812	-42.646469
68.359375	-43.790379
69.335938	-42.065540
70.312500	-43.798542
71.289062	-43.281384
72.265625	-43.115009
73.242188	-42.813915
74.218750	-42.249519
75.195312	-42.260788
76.171875	-43.385944
77.148438	-42.487877
78.125000	-41.011749
79.101562	-43.032124
80.078125	-43.355465
81.054688	-44.864094
82.031250	-43.972397
83.007812	-42.876404
83.984375	-42.044636
84.960938	-42.948788
85.937500	-42.949783
86.914062	-41.887604
87.890625	-41.939648
88.867188	-42.694473
89.843750	-43.477116
90.820312	-43.607769
91.796875	-43.643070
92.773438	-43.599384
93.750000	-42.714325
94.726562	-43.859150
95.703125	-42.966198
96.679688	-41.491371
97.656250	-43.518456
98.632812	-42.408688
99.609375	-43.262909
100.585938	-42.302505
101.562500	-42.045818
102.539062	-42.356529
103.515625	-41.368832
104.492188	-42.935249
105.468750	-43.375389
106.445312	-43.155254
107.421875	-42.292252
108.398438	-42.901505
109.375000	-41.869724
110.351562	-41.638145
111.328125	-43.649147
112.304688	-43.819157
113.281250	-42.861336
114.257812	-43.225986
115.234375	-42.858521
116.210938	-42.730759
117.187500	-42.369610
118.164062	-42.259621
119.140625	-42.822865
120.117188	-42.703617
121.093750	-43.242989
122.070312	-42.686665
123.046875	-42.639164
124.023438	-42.895359
125.000000	-42.509850
125.976562	-44.048199
126.953125	-43.381672
127.929688	-42.964245
128.906250	-42.424335
129.882812	-42.907112
130.859375	-42.479687
131.835938	-42.962486
132.812500	-42.676525
133.789062	-42.264191
134.765625	-43.893200
135.742188	-41.697063
136.718750	-43.419075
137.695312	-43.769848
138.671875	-42.544636
139.648438	-42.595200
140.625000	-42.303116
141.601562	-43.049591
142.578125	-42.854984
143.554688	-42.790833
144.531250	-43.107471
145.507812	-42.982262
146.484375	-42.652184
147.460938	-43.765137
148.437500	-42.548679
149.414062	-41.780621
150.390625	-42.849369
151.367188	-45.040775
152.343750	-43.202396
153.320312	-43.741520
154.296875	-42.832897
155.273438	-42.403332
156.250000	-42.558567
157.226562	-43.779263
158.203125	-43.190166
159.179688	-44.637711
160.156250	-42.119289
161.132812	-44.624840
162.109375	-41.512878
163.085938	-44.067245
164.062500	-43.625553
165.039062	-42.870499
166.015625	-42.026287
166.992188	-42.036102
167.968750	-42.888805
168.945312	-43.390224
169.921875	-43.241844
170.898438	-43.242966
171.875000	-43.013847
172.851562	-42.875820
173.828125	-43.605095
174.804688	-42.714165
175.781250	-43.520267
176.757812	-42.905979
177.734375	-43.039173
178.710938	-43.293129
179.687500	-42.124649
180.664062	-43.441174
181.640625	-44.815868
182.617188	-43.028858
183.593750	-43.376484
184.570312	-42.512402
185.546875	-42.575077
186.523438	-44.061134
187.500000	-44.742760
188.476562	-43.225361
189.453125	-43.147957
190.429688	-42.443371
191.406250	-44.034397
192.382812	-41.861443
193.359375	-42.928982
194.335938	-41.977131
195.312500	-41.362690
196.289062	-44.354916
197.265625	-44.359940
198.242188	-43.609249
199.218750	-42.162254
200.195312	-42.796085
201.171875	-43.263462
202.148438	-41.536228
203.125000	-42.315327
204.101562	-42.901546
205.078125	-43.329273
206.054688	-42.342899
207.031250	-42.760616
208.007812	-42.949963
208.984375	-43.627121
209.960938	-42.940514
210.937500	-43.135960
211.914062	-42.740540
212.890625	-42.389263
213.867188	-40.835583
214.843750	-42.598026
215.820312	-43.044319
216.796875	-42.345100
217.773438	-42.416084
218.750000	-44.076973
219.726562	-42.999828
220.703125	-42.397118
221.679688	-43.103367
222.656250	-44.160889
223.632812	-42.652954
224.609375	-42.799316
225.585938	-44.065792
226.562500	-43.959457
227.539062	-42.708961
228.515625	-44.626919
229.492188	-42.933392
230.468750	-43.442947
231.445312	-43.519279
232.421875	-42.955276
233.398438	-42.413876
234.375000	-42.177742
235.351562	-43.813694
236.328125	-43.826580
237.304688	-43.394325
238.281250	-46.037556
239.257812	-43.382896
240.234375	-42.809395
241.210938	-43.759815
242.187500	-43.215137
243.164062	-43.497467
244.140625	-42.788330
245.117188	-42.793602
246.093750	-43.321228
247.070312	-42.926735
248.046875	-43.317917
249.023438	-43.273113
250.000000	-42.177639
250.976562	-43.195370
251.953125	-42.775688
252.929688	-42.069714
253.906250	-42.499195
254.882812	-42.538940
255.859375	-40.705605
256.835938	-42.570580
257.812500	-42.650532
258.789062	-43.328358
259.765625	-44.236996
260.742188	-42.943974
261.718750	-43.291035
262.695312	-42.795204
263.671875	-43.313492
264.648438	-43.496925
265.625000	-42.059486
266.601562	-42.976147
267.578125	-41.715981
268.554688	-41.437237
269.531250	-44.613010
270.507812	-42.407059
271.484375	-42.549377
272.460938	-42.984207
273.437500	-43.562534
274.414062	-43.360794
275.390625	-42.459202
276.367188	-42.008144
277.343750	-41.916943
278.320312	-42.746380
279.296875	-43.787262
280.273438	-44.346512
281.250000	-43.266235
282.226562	-42.673508
283.203125	-42.872486
284.179688	-43.195625
285.156250	-42.512581
286.132812	-42.365856
287.109375	-42.878391
288.085938	-42.363201
289.062500	-42.779335
290.039062	-42.281719
291.015625	-42.674194
291.992188	-42.253265
292.968750	-42.027325
293.945312	-42.448288
294.921875	-42.577908
295.898438	-43.081738
296.875000	-42.963600
297.851562	-43.389778
298.828125	-43.459366
299.804688	-43.607815
300.781250	-43.743221
301.757812	-42.434002
302.734375	-42.172272
303.710938	-43.573387
304.687500	-43.788620
305.664062	-43.250130
306.640625	-41.554489
307.617188	-43.016029
308.593750	-43.316833
309.570312	-41.483280
310.546875	-43.559635
311.523438	-43.920174
312.500000	-42.350449
313.476562	-42.507542
314.453125	-41.816883
315.429688	-42.420483
316.406250	-42.114643
317.382812	-42.485191
318.359375	-42.719883
319.335938	-43.374508
320.312500	-43.921154
321.289062	-43.327763
322.265625	-43.283928
323.242188	-43.066185
324.218750	-42.081326
325.195312	-43.171986
326.171875	-43.788448
327.148438	-43.337128
328.125000	-43.762272
329.101562	-41.484131
330.078125	-42.596260
331.054688	-42.114750
332.031250	-42.397644
333.007812	-42.515160
333.984375	-42.461155
334.960938	-42.422333
335.937500	-42.969223
336.914062	-43.265724
337.890625	-42.135582
338.867188	-42.708317
339.843750	-43.693546
340.820312	-42.612587
341.796875	-43.265366
342.773438	-43.122360
343.750000	-41.608227
344.726562	-43.469765
345.703125	-42.854382
346.679688	-42.738434
347.656250	-42.693344
348.632812	-42.893517
349.609375	-44.160580
350.585938	-43.668079
351.562500	-40.850491
352.539062	-42.291645
353.515625	-41.833153
354.492188	-41.914482
355.468750	-42.268860
356.445312	-42.861206
357.421875	-43.059349
358.398438	-44.805992
359.375000	-42.464333
360.351562	-42.294743
361.328125	-43.787434
362.304688	-42.475307
363.281250	-42.687263
364.257812	-42.917343
365.234375	-43.751682
366.210938	-45.156456
367.187500	-42.847679
368.164062	-43.271957
369.140625	-42.445827
370.117188	-43.057499
371.093750	-42.575676
372.070312	-43.544647
373.046875	-41.799805
374.023438	-42.407856
375.000000	-42.856373
375.976562	-42.741394
376.953125	-42.986153
377.929688	-43.503529
378.906250	-42.843548
379.882812	-42.404896
380.859375	-42.928486
381.835938	-42.740246
382.812500	-42.308708
383.789062	-43.425907
384.765625	-42.526909
385.742188	-42.638165
386.718750	-42.840389
387.695312	-43.859016
388.671875	-43.512367
389.648438	-41.931915
390.625000	-41.403828
391.601562	-43.143833
392.578125	-44.667427
393.554688	-43.237171
394.531250	-43.318916
395.507812	-42.614300
396.484375	-42.414078
397.460938	-43.778656
398.437500	-43.405903
399.414062	-42.323162
400.390625	-43.585468
401.367188	-42.732712
402.343750	-42.539944
403.320312	-41.946655
404.296875	-42.034039
405.273438	-44.727974
406.250000	-43.276463
407.226562	-43.156170
408.203125	-43.064335
409.179688	-43.202080
410.156250	-44.073498
411.132812	-42.916859
412.109375	-42.784065
413.085938	-42.259418
414.062500	-44.152699
415.039062	-43.520912
416.015625	-42.373718
416.992188	-42.509415
417.968750	-43.572159
418.945312	-43.036385
419.921875	-44.068817
420.898438	-42.475945
421.875000	-43.241673
422.851562	-42.429138
423.828125	-43.187340
424.804688	-41.835400
425.781250	-42.338711
426.757812	-42.802319
427.734375	-43.400524
428.710938	-43.254208
429.687500	-42.622841
430.664062	-43.339970
431.640625	-41.294991
432.617188	-42.434284
433.593750	-43.289833
434.570312	-43.788586
435.546875	-42.229969
436.523438	-43.045643
437.500000	-41.463696
438.476562	-42.534618
439.453125	-42.518169
440.429688	-43.532692
441.406250	-42.769489
442.382812	-43.084244
443.359375	-42.649143
444.335938	-42.580017
445.312500	-43.855076
446.289062	-43.602093
447.265625	-41.609169
448.242188	-43.449898
449.218750	-42.118694
450.195312	-43.523529
451.171875	-42.565529
452.148438	-42.925312
453.125000	-43.880737
454.101562	-42.921375
455.078125	-42.267071
456.054688	-43.067253
457.031250	-43.650566
458.007812	-42.924183
458.984375	-42.951077
459.960938	-42.565678
460.937500	-41.936943
461.914062	-43.229649
462.890625	-42.470139
463.867188	-42.591747
464.843750	-42.846107
465.820312	-43.483601
466.796875	-42.067490
467.773438	-42.267460
468.750000	-42.850166
469.726562	-41.797310
470.703125	-42.216129
471.679688	-43.663795
472.656250	-41.805813
473.632812	-43.469727
474.609375	-43.186176
475.585938	-43.824722
476.562500	-42.912567
477.539062	-43.234764
478.515625	-42.998566
479.492188	-43.163929
480.468750	-43.000923
481.445312	-42.708565
482.421875	-43.609947
483.398438	-42.294914
484.375000	-42.956799
485.351562	-43.079037
486.328125	-43.361469
487.304688	-42.791302
488.281250	-43.782917
489.257812	-41.561607
490.234375	-42.167938
491.210938	-43.107136
492.187500	-43.695175
493.164062	-41.661049
494.140625	-43.041706
495.117188	-42.483501
496.093750	-42.064308
497.070312	-44.462082
498.046875	-43.252956
499.023438	-42.900444
500.000000	-45.035881
500.976562	-42.824032
501.953125	-41.683712
502.929688	-43.078529
503.906250	-42.969635
504.882812	-43.128811
505.859375	-42.809525
506.835938	-42.801979
507.812500	-42.165882
508.789062	-43.323582
509.765625	-44.442608
510.742188	-42.407467
511.718750	-42.610146
512.695312	-42.451805
513.671875	-43.958824
514.648438	-43.061424
515.625000	-42.569191
516.601562	-42.592770
517.578125	-43.728661
518.554688	-42.658432
519.531250	-42.978565
520.507812	-43.342960
521.484375	-42.431297
522.460938	-43.672222
523.437500	-43.805374
524.414062	-43.494308
525.390625	-43.616421
526.367188	-43.723789
527.343750	-43.609623
528.320312	-43.049397
529.296875	-42.817520
530.273438	-43.434227
531.250000	-42.828053
532.226562	-42.515083
533.203125	-41.704391
534.179688	-43.077145
535.156250	-43.226673
536.132812	-42.735893
537.109375	-43.312172
538.085938	-43.329155
539.062500	-42.240532
540.039062	-43.289623
541.015625	-44.095169
541.992188	-42.761795
542.968750	-41.880829
543.945312	-42.765163
544.921875	-42.876991
545.898438	-43.844620
546.875000	-43.453926
547.851562	-42.364887
548.828125	-43.396725
549.804688	-42.694889
550.781250	-42.786419
551.757812	-43.678154
552.734375	-42.013344
553.710938	-42.115871
554.687500	-42.014580
555.664062	-42.345741
556.640625	-43.005974
557.617188	-43.013943
558.593750	-42.039410
559.570312	-42.219120
560.546875	-44.211926
561.523438	-43.664875
562.500000	-42.924042
563.476562	-41.823120
564.453125	-42.380310
565.429688	-43.776566
566.406250	-43.911469
567.382812	-42.235573
568.359375	-42.597122
569.335938	-43.124813
570.312500	-42.506130
571.289062	-43.971359
572.265625	-42.737667
573.242188	-42.359695
574.218750	-44.964725
575.195312	-43.935455
576.171875	-42.759792
577.148438	-42.897114
578.125000	-43.170982
579.101562	-43.841064
580.078125	-43.002968
581.054688	-43.255325
582.031250	-43.795063
583.007812	-42.654686
583.984375	-43.276794
584.960938	-44.099190
585.937500	-43.544792
586.914062	-42.486156
587.890625	-42.915314
588.867188	-42.997879
589.843750	-42.731651
590.820312	-42.406246
591.796875	-44.000977
592.773438	-42.509022
593.750000	-42.600193
594.726562	-43.050484
595.703125	-43.810265
596.679688	-42.443302
597.656250	-42.485043
598.632812	-43.091209
599.609375	-42.366123
600.585938	-44.074543
601.562500	-42.962383
602.539062	-43.148315
603.515625	-43.200985
604.492188	-43.584457
605.468750	-42.639042
606.445312	-42.883270
607.421875	-42.342175
608.398438	-44.127304
609.375000	-43.498119
610.351562	-42.702862
611.328125	-43.349728
612.304688	-42.752132
613.281250	-44.154884
614.257812	-43.788425
615.234375	-42.604275
616.210938	-42.647392
617.187500	-42.446777
618.164062	-42.565159
619.140625	-44.503387
620.117188	-42.397144
621.093750	-42.640541
622.070312	-43.384682
623.046875	-43.042244
624.023438	-42.899384
625.000000	-42.921532
625.976562	-42.974350
626.953125	-42.070793
627.929688	-42.562073
628.906250	-43.999996
629.882812	-43.060875
630.859375	-43.517399
631.835938	-44.053093
632.812500	-42.189663
633.789062	-41.808105
634.765625	-44.320099
635.742188	-43.056248
636.718750	-42.354851
637.695312	-42.800549
638.671875	-42.147556
639.648438	-42.788830
640.625000	-42.878002
641.601562	-43.767521
642.578125	-42.636833
643.554688	-42.869144
644.531250	-42.941166
645.507812	-41.418819
646.484375	-42.741821
647.460938	-42.771374
648.437500	-42.772446
649.414062	-42.770962
650.390625	-42.789478
651.367188	-42.225452
652.343750	-41.673836
653.320312	-42.531368
654.296875	-42.878868
655.273438	-43.089512
656.250000	-42.674278
657.226562	-43.707741
658.203125	-43.113136
659.179688	-43.202644
660.156250	-42.921459
661.132812	-43.851120
662.109375	-43.506042
663.085938	-42.077278
664.062500	-42.805557
665.039062	-42.669731
666.015625	-43.077576
666.992188	-43.033524
667.968750	-43.711636
668.945312	-42.948032
669.921875	-43.273598
670.898438	-43.163067
671.875000	-43.386478
672.851562	-42.579185
673.828125	-43.219631
674.804688	-42.929741
675.781250	-44.884151
676.757812	-43.027363
677.734375	-43.850616
678.710938	-43.374294
679.687500	-43.823166
680.664062	-42.811619
681.640625	-41.281567
682.617188	-42.329494
683.593750	-42.350662
684.570312	-42.053585
685.546875	-41.943974
686.523438	-42.557980
687.500000	-43.591286
688.476562	-42.564350
689.453125	-42.354603
690.429688	-44.196705
691.406250	-43.571636
692.382812	-42.983395
693.359375	-42.772560
694.335938	-43.401920
695.312500	-43.747078
696.289062	-44.726917
697.265625	-42.471630
698.242188	-42.690807
699.218750	-44.654144
700.195312	-43.344872
701.171875	-42.266693
702.148438	-43.645206
703.125000	-42.551697
704.101562	-42.130573
705.078125	-42.436047
706.054688	-42.407082
707.031250	-43.337841
708.007812	-44.227726
708.984375	-43.385929
709.960938	-43.518078
710.937500	-41.931736
711.914062	-42.580479
712.890625	-44.010601
713.867188	-41.719532
714.843750	-42.913105
715.820312	-41.926113
716.796875	-42.692165
717.773438	-43.374985
718.750000	-42.776627
719.726562	-43.275711
720.703125	-43.486923
721.679688	-42.010265
722.656250	-42.987457
723.632812	-43.178833
724.609375	-43.156219
725.585938	-41.674004
726.562500	-41.830360
727.539062	-43.899399
728.515625	-42.665222
729.492188	-43.565144
730.468750	-42.607716
731.445312	-42.122974
732.421875	-43.496414
733.398438	-43.864590
734.375000	-42.268993
735.351562	-42.750683
736.328125	-43.092270
737.304688	-43.792103
738.281250	-42.160854
739.257812	-41.714306
740.234375	-41.858742
741.210938	-43.859776
742.187500	-41.676773
743.164062	-41.783543
744.140625	-43.617756
745.117188	-42.547558
746.093750	-42.642521
747.070312	-42.963017
748.046875	-42.443607
749.023438	-42.555031
750.000000	-43.193455
750.976562	-42.853714
751.953125	-42.316265
752.929688	-43.880207
753.906250	-42.843182
754.882812	-42.719448
755.859375	-43.826351
756.835938	-43.011478
757.812500	-42.692898
758.789062	-43.250671
759.765625	-42.469276
760.742188	-42.986465
761.718750	-43.646194
762.695312	-42.982765
763.671875	-42.614864
764.648438	-42.625942
765.625000	-42.857185
766.601562	-42.976162
767.578125	-42.673103
768.554688	-42.182575
769.531250	-42.900398
770.507812	-43.228363
771.484375	-43.370285
772.460938	-43.934402
773.437500	-43.161293
774.414062	-42.564995
775.390625	-41.518677
776.367188	-42.800411
777.343750	-42.959476
778.320312	-43.338428
779.296875	-43.052361
780.273438	-43.930149
781.250000	-44.098969
782.226562	-44.429310
783.203125	-43.271996
784.179688	-42.646557
785.156250	-43.201790
786.132812	-42.851757
787.109375	-42.487926
788.085938	-41.739323
789.062500	-43.463310
790.039062	-42.746593
791.015625	-43.574066
791.992188	-42.072384
792.968750	-42.518147
793.945312	-42.694668
794.921875	-43.204269
795.898438	-42.912933
796.875000	-42.404530
797.851562	-41.330708
798.828125	-41.499027
799.804688	-42.490810
800.781250	-42.581444
801.757812	-43.188522
802.734375	-43.512470
803.710938	-43.011528
804.687500	-42.901039
805.664062	-42.077820
806.640625	-43.526203
807.617188	-43.041969
808.593750	-42.538300
809.570312	-42.248802
810.546875	-42.495804
811.523438	-44.069405
812.500000	-42.821682
813.476562	-41.861954
814.453125	-42.460091
815.429688	-42.766598
816.406250	-42.056099
817.382812	-43.056438
818.359375	-42.465534
819.335938	-42.707005
820.312500	-42.214630
821.289062	-43.213963
822.265625	-43.803383
823.242188	-42.480648
824.218750	-43.440323
825.195312	-42.209824
826.171875	-42.570934
827.148438	-41.926983
828.125000	-44.000854
829.101562	-43.016167
830.078125	-42.841766
831.054688	-42.396580
832.031250	-42.778305
833.007812	-43.392807
833.984375	-42.672745
834.960938	-43.467865
835.937500	-43.670593
836.914062	-42.918331
837.890625	-43.912327
838.867188	-42.788734
839.843750	-43.622944
840.820312	-43.683701
841.796875	-42.878250
842.773438	-43.366997
843.750000	-43.152607
844.726562	-42.056652
845.703125	-43.089485
846.679688	-43.316711
847.656250	-42.268059
848.632812	-42.568352
849.609375	-42.459118
850.585938	-42.781151
851.562500	-43.081707
852.539062	-42.528271
853.515625	-43.034180
854.492188	-42.835285
855.468750	-42.859524
856.445312	-42.442497
857.421875	-42.020279
858.398438	-43.379154
859.375000	-43.034958
860.351562	-42.660831
861.328125	-42.891605
862.304688	-42.310425
863.281250	-43.736336
864.257812	-42.261784
865.234375	-43.675587
866.210938	-42.656563
867.187500	-43.419712
868.164062	-42.384033
869.140625	-42.010624
870.117188	-41.778236
871.093750	-42.100700
872.070312	-41.883251
873.046875	-42.458313
874.023438	-42.124882
875.000000	-42.964668
875.976562	-42.603539
876.953125	-42.687115
877.929688	-43.125957
878.906250	-44.902851
879.882812	-42.648071
880.859375	-41.806931
881.835938	-42.234215
882.812500	-42.224331
883.789062	-42.514503
884.765625	-43.899849
885.742188	-43.284966
886.718750	-41.668751
887.695312	-42.513515
888.671875	-42.828609
889.648438	-41.084869
890.625000	-43.440865
891.601562	-43.324089
892.578125	-43.451347
893.554688	-43.551235
894.531250	-43.040974
895.507812	-43.154961
896.484375	-43.945568
897.460938	-42.773140
898.437500	-43.564945
899.414062	-44.122913
900.390625	-42.859562
901.367188	-42.136944
902.343750	-41.994881
903.320312	-42.702301
904.296875	-43.798927
905.273438	-43.045429
906.250000	-41.967869
907.226562	-42.379181
908.203125	-43.064362
909.179688	-42.731503
910.156250	-43.342468
911.132812	-43.473499
912.109375	-41.123131
913.085938	-43.195374
914.062500	-43.076950
915.039062	-42.786777
916.015625	-44.021244
916.992188	-42.338505
917.968750	-42.089611
918.945312	-42.999168
919.921875	-43.090839
920.898438	-42.875725
921.875000	-42.650105
922.851562	-42.949593
923.828125	-41.833530
924.804688	-42.669819
925.781250	-43.041946
926.757812	-43.069656
927.734375	-43.743290
928.710938	-43.205029
929.687500	-42.978981
930.664062	-42.728783
931.640625	-42.663322
932.617188	-41.539299
933.593750	-43.268734
934.570312	-42.651752
935.546875	-41.293571
936.523438	-43.403316
937.500000	-42.812523
938.476562	-42.444016
939.453125	-42.742638
940.429688	-42.581856
941.406250	-42.110092
942.382812	-42.409809
943.359375	-43.461212
944.335938	-43.269733
945.312500	-42.763371
946.289062	-43.281136
947.265625	-42.953896
948.242188	-42.854740
949.218750	-41.685074
950.195312	-42.222446
951.171875	-43.691929
952.148438	-42.949303
953.125000	-41.897316
954.101562	-43.501678
955.078125	-42.422047
956.054688	-43.060337
957.031250	-42.471100
958.007812	-42.752968
958.984375	-42.570461
959.960938	-43.630577
960.937500	-43.261913
961.914062	-43.309544
962.890625	-43.217789
963.867188	-42.537460
964.843750	-42.663574
965.820312	-43.543011
966.796875	-43.075817
967.773438	-43.802376
968.750000	-43.672276
969.726562	-44.191982
970.703125	-42.267117
971.679688	-42.313057
972.656250	-42.447750
973.632812	-42.338699
974.609375	-41.950291
975.585938	-43.024368
976.562500	-43.349617
977.539062	-42.459621
978.515625	-42.447330
979.492188	-42.172409
980.468750	-42.967113
981.445312	-42.569111
982.421875	-43.245193
983.398438	-43.014866
984.375000	-43.223118
985.351562	-42.723785
986.328125	-42.866596
987.304688	-41.941227
988.281250	-43.260807
989.257812	-44.267277
990.234375	-43.664570
991.210938	-43.462879
992.187500	-42.769234
993.164062	-43.398872
994.140625	-42.833611
995.117188	-43.259724
996.093750	-43.315613
997.070312	-43.090954
998.046875	-43.515316
999.023438	-43.357803
1000.000000	-42.982277
1000.976562	-41.468922
1001.953125	-42.855793
1002.929688	-41.843437
1003.906250	-42.315956
1004.882812	-43.301506
1005.859375	-41.582413
1006.835938	-42.928604
1007.812500	-43.464897
1008.789062	-43.563992
1009.765625	-42.457790
1010.742188	-43.713650
1011.718750	-43.410561
1012.695312	-43.773701
1013.671875	-43.125641
1014.648438	-42.574913
1015.625000	-42.298950
1016.601562	-42.655415
1017.578125	-42.671780
1018.554688	-42.445950
1019.531250	-42.249462
1020.507812	-42.956158
1021.484375	-42.748981
1022.460938	-43.988033
1023.437500	-43.465313
1024.414062	-43.475681
1025.390625	-41.528309
1026.367188	-43.744484
1027.343750	-42.304771
1028.320312	-43.594273
1029.296875	-43.096226
1030.273438	-43.097260
1031.250000	-44.230137
1032.226562	-44.419315
1033.203125	-43.230709
1034.179688	-43.425030
1035.156250	-43.519566
1036.132812	-42.747505
1037.109375	-43.247211
1038.085938	-44.213154
1039.062500	-42.209778
1040.039062	-44.218891
1041.015625	-43.676239
1041.992188	-43.007942
1042.968750	-43.506409
1043.945312	-42.413612
1044.921875	-42.357666
1045.898438	-41.987576
1046.875000	-41.852783
1047.851562	-42.098297
1048.828125	-43.233055
1049.804688	-42.675079
1050.781250	-42.131844
1051.757812	-42.788601
1052.734375	-44.396809
1053.710938	-43.125439
1054.687500	-42.929150
1055.664062	-43.093044
1056.640625	-42.582829
1057.617188	-43.090050
1058.593750	-44.108833
1059.570312	-42.573013
1060.546875	-41.983906
1061.523438	-42.367672
1062.500000	-44.649109
1063.476562	-43.859379
1064.453125	-43.864342
1065.429688	-42.921844
1066.406250	-43.015903
1067.382812	-43.194923
1068.359375	-42.902988
1069.335938	-41.521763
1070.312500	-42.979855
1071.289062	-43.596321
1072.265625	-42.055931
1073.242188	-41.467945
1074.218750	-41.999226
1075.195312	-42.935711
1076.171875	-43.151810
1077.148438	-43.530174
1078.125000	-44.218658
1079.101562	-42.666256
1080.078125	-42.978981
1081.054688	-43.408520
1082.031250	-43.207321
1083.007812	-43.669537
1083.984375	-43.003418
1084.960938	-42.474606
1085.937500	-42.759762
1086.914062	-43.172798
1087.890625	-41.710739
1088.867188	-43.662540
1089.843750	-44.128040
1090.820312	-43.588017
1091.796875	-44.488865
1092.773438	-42.743835
1093.750000	-42.877808
1094.726562	-43.815063
1095.703125	-42.184975
1096.679688	-42.518761
1097.656250	-43.928490
1098.632812	-43.021160
1099.609375	-42.564327
1100.585938	-43.234875
1101.562500	-41.958668
1102.539062	-42.418758
1103.515625	-42.629887
1104.492188	-42.991924
1105.468750	-43.694908
1106.445312	-42.192322
1107.421875	-43.277920
1108.398438	-42.802910
1109.375000	-43.882847
1110.351562	-43.441048
1111.328125	-42.863564
1112.304688	-43.665211
1113.281250	-44.575272
1114.257812	-43.298790
1115.234375	-41.594986
1116.210938	-43.662251
1117.187500	-42.665066
1118.164062	-43.851139
1119.140625	-43.035492
1120.117188	-41.846569
1121.093750	-42.370445
1122.070312	-42.382168
1123.046875	-41.684036
1124.023438	-42.441376
1125.000000	-42.466385
1125.976562	-41.413906
1126.953125	-44.336918
1127.929688	-42.963787
1128.906250	-42.552990
1129.882812	-43.330677
1130.859375	-41.476078
1131.835938	-43.465878
1132.812500	-42.159576
1133.789062	-42.078320
1134.765625	-43.222897
1135.742188	-44.096905
1136.718750	-41.977604
1137.695312	-42.765598
1138.671875	-42.106396
1139.648438	-42.582790
1140.625000	-42.749771
1141.601562	-43.333237
1142.578125	-43.708988
1143.554688	-41.408237
1144.531250	-44.697895
1145.507812	-43.014595
1146.484375	-43.852203
1147.460938	-43.159912
1148.437500	-42.104984
1149.414062	-42.809235
1150.390625	-42.434158
1151.367188	-42.865723
1152.343750	-42.171715
1153.320312	-41.510956
1154.296875	-43.145878
1155.273438	-43.046913
1156.250000	-42.001492
1157.226562	-43.541786
1158.203125	-43.639610
1159.179688	-42.371498
1160.156250	-42.579838
1161.132812	-43.813114
1162.109375	-43.076939
1163.085938	-43.068260
1164.062500	-43.107067
1165.039062	-43.151596
1166.015625	-42.947983
1166.992188	-43.139164
1167.968750	-42.899189
1168.945312	-41.491550
1169.921875	-41.913177
1170.898438	-42.926365
1171.875000	-42.223476
1172.851562	-42.669521
1173.828125	-43.155384
1174.804688	-42.541065
1175.781250	-42.581215
1176.757812	-42.765335
1177.734375	-42.958366
1178.710938	-44.173359
1179.687500	-43.321888
1180.664062	-43.460323
1181.640625	-41.734253
1182.617188	-42.337540
1183.593750	-42.155037
1184.570312	-43.417469
1185.546875	-42.456749
1186.523438	-41.722057
1187.500000	-42.885788
1188.476562	-43.204609
1189.453125	-42.184460
1190.429688	-42.485264
1191.406250	-41.861420
1192.382812	-41.837570
1193.359375	-43.016060
1194.335938	-41.930481
1195.312500	-41.702759
1196.289062	-42.747818
1197.265625	-43.961140
1198.242188	-43.841698
1199.218750	-43.547966
1200.195312	-42.792698
1201.171875	-42.667870
1202.148438	-42.348522
1203.125000	-41.632072
1204.101562	-43.125656
1205.078125	-42.094627
1206.054688	-43.137760
1207.031250	-43.612263
1208.007812	-42.206337
1208.984375	-42.914001
1209.960938	-42.205704
1210.937500	-43.158764
1211.914062	-43.669945
1212.890625	-42.380444
1213.867188	-43.325619
1214.843750	-43.944557
1215.820312	-43.253765
1216.796875	-43.018379
1217.773438	-41.405407
1218.750000	-43.010834
1219.726562	-42.946140
1220.703125	-43.156715
1221.679688	-42.872410
1222.656250	-42.771523
1223.632812	-42.745113
1224.609375	-43.580727
1225.585938	-42.657688
1226.562500	-44.467953
1227.539062	-43.934883
1228.515625	-42.495262
1229.492188	-42.846722
1230.468750	-42.370090
1231.445312	-43.274780
1232.421875	-42.938114
1233.398438	-42.694027
1234.375000	-44.061691
1235.351562	-43.154366
1236.328125	-43.277592
1237.304688	-42.425636
1238.281250	-43.381786
1239.257812	-42.051167
1240.234375	-42.013996
1241.210938	-42.780910
1242.187500	-41.974842
1243.164062	-43.095791
1244.140625	-43.268253
1245.117188	-42.083931
1246.093750	-41.843502
1247.070312	-41.794399
1248.046875	-42.725643
1249.023438	-42.074303
1250.000000	-42.784107
1250.976562	-42.455376
1251.953125	-42.424179
1252.929688	-42.349258
1253.906250	-42.327747
1254.882812	-42.730839
1255.859375	-42.104527
1256.835938	-43.139141
1257.812500	-43.255981
1258.789062	-43.632389
1259.765625	-43.216461
1260.742188	-43.880051
1261.718750	-42.330666
1262.695312	-42.819057
1263.671875	-42.880589
1264.648438	-42.471962
1265.625000	-42.724144
1266.601562	-43.994011
1267.578125	-42.940247
1268.554688	-41.922096
1269.531250	-43.022861
1270.507812	-43.585224
1271.484375	-43.861362
1272.460938	-43.417076
1273.437500	-43.070492
1274.414062	-42.485527
1275.390625	-42.730083
1276.367188	-43.196609
1277.343750	-42.544933
1278.320312	-43.474518
1279.296875	-42.572384
1280.273438	-42.723946
1281.250000	-43.221241
1282.226562	-43.605694
1283.203125	-43.852398
1284.179688	-42.241577
1285.156250	-42.693367
1286.132812	-42.676323
1287.109375	-43.873676
1288.085938	-44.279278
1289.062500	-42.780182
1290.039062	-42.452412
1291.015625	-43.598740
1291.992188	-42.759968
1292.968750	-41.993988
1293.945312	-43.740715
1294.921875	-42.507862
1295.898438	-42.567570
1296.875000	-42.001991
1297.851562	-43.183525
1298.828125	-41.790257
1299.804688	-42.317822
1300.781250	-42.464451
1301.757812	-43.817875
1302.734375	-43.958450
1303.710938	-42.885380
1304.687500	-43.506752
1305.664062	-43.636551
1306.640625	-42.493652
1307.617188	-43.277317
1308.593750	-43.281292
1309.570312	-43.519199
1310.546875	-42.941959
1311.523438	-42.473576
1312.500000	-42.804710
1313.476562	-42.687454
1314.453125	-42.319065
1315.429688	-42.379204
1316.406250	-42.157719
1317.382812	-42.333038
1318.359375	-42.437359
1319.335938	-42.752403
1320.312500	-44.382111
1321.289062	-42.005497
1322.265625	-43.145615
1323.242188	-43.738640
1324.218750	-43.456413
1325.195312	-43.777504
1326.171875	-44.634552
1327.148438	-43.686302
1328.125000	-43.209675
1329.101562	-42.544701
1330.078125	-42.628185
1331.054688	-43.289715
1332.031250	-42.173851
1333.007812	-43.243763
1333.984375	-43.604622
1334.960938	-43.389965
1335.937500	-42.470818
1336.914062	-42.567009
1337.890625	-42.976006
1338.867188	-43.221813
1339.843750	-44.194309
1340.820312	-43.177658
1341.796875	-42.229633
1342.773438	-43.442684
1343.750000	-42.817200
1344.726562	-43.718357
1345.703125	-43.953053
1346.679688	-42.935024
1347.656250	-42.222557
1348.632812	-42.533726
1349.609375	-42.287315
1350.585938	-43.514008
1351.562500	-43.626244
1352.539062	-43.238979
1353.515625	-42.413876
1354.492188	-42.779724
1355.468750	-42.712471
1356.445312	-43.086735
1357.421875	-42.998096
1358.398438	-42.015915
1359.375000	-41.761948
1360.351562	-42.100224
1361.328125	-43.323635
1362.304688	-42.476959
1363.281250	-43.657650
1364.257812	-42.155731
1365.234375	-43.064152
1366.210938	-42.139938
1367.187500	-42.742065
1368.164062	-42.417145
1369.140625	-43.788136
1370.117188	-44.136654
1371.093750	-42.808601
1372.070312	-42.943890
1373.046875	-43.546410
1374.023438	-42.578304
1375.000000	-43.335308
1375.976562	-43.089165
1376.953125	-42.180836
1377.929688	-43.323322
1378.906250	-43.145588
1379.882812	-43.441433
1380.859375	-42.948086
1381.835938	-42.906765
1382.812500	-43.967491
1383.789062	-43.484188
1384.765625	-42.709324
1385.742188	-43.465240
1386.718750	-42.172314
1387.695312	-42.880871
1388.671875	-42.981155
1389.648438	-42.963623
1390.625000	-42.488976
1391.601562	-43.067333
1392.578125	-41.839005
1393.554688	-42.918964
1394.531250	-42.634922
1395.507812	-42.336750
1396.484375	-42.720669
1397.460938	-42.793198
1398.437500	-42.753357
1399.414062	-42.870922
1400.390625	-44.064602
1401.367188	-43.480091
1402.343750	-43.140606
1403.320312	-41.826385
1404.296875	-42.973042
1405.273438	-43.388344
1406.250000	-43.174583
1407.226562	-42.644855
1408.203125	-41.727257
1409.179688	-42.897655
1410.156250	-43.716000
1411.132812	-42.803783
1412.109375	-43.707603
1413.085938	-42.807102
1414.062500	-41.743988
1415.039062	-42.680828
1416.015625	-41.594856
1416.992188	-43.561123
1417.968750	-43.268902
1418.945312	-41.921795
1419.921875	-43.673492
1420.898438	-42.984024
1421.875000	-44.786209
1422.851562	-44.375946
1423.828125	-42.982750
1424.804688	-42.190159
1425.781250	-42.347660
1426.757812	-41.045761
1427.734375	-42.933804
1428.710938	-43.461014
1429.687500	-43.433201
1430.664062	-42.404423
1431.640625	-42.818134
1432.617188	-42.718910
1433.593750	-41.998505
1434.570312	-43.131432
1435.546875	-43.993969
1436.523438	-44.011070
1437.500000	-43.358994
1438.476562	-42.392254
1439.453125	-42.123066
1440.429688	-42.901413
1441.406250	-43.297306
1442.382812	-42.634483
1443.359375	-43.305336
1444.335938	-42.299599
1445.312500	-43.477028
1446.289062	-44.228851
1447.265625	-43.105541
1448.242188	-42.230503
1449.218750	-43.657467
1450.195312	-42.694447
1451.171875	-42.633141
1452.148438	-42.973198
1453.125000	-44.679188
1454.101562	-42.567123
1455.078125	-42.753849
1456.054688	-42.976212
1457.031250	-43.044483
1458.007812	-43.601231
1458.984375	-43.020622
1459.960938	-43.160580
1460.937500	-43.686371
1461.914062	-44.391228
1462.890625	-42.486576
1463.867188	-42.098801
1464.843750	-42.633068
1465.820312	-42.576321
1466.796875	-41.104984
1467.773438	-42.992550
1468.750000	-41.588776
1469.726562	-42.795662
1470.703125	-43.223606
1471.679688	-42.714737
1472.656250	-43.084110
1473.632812	-43.396999
1474.609375	-42.510208
1475.585938	-43.178654
1476.562500	-41.690563
1477.539062	-42.798462
1478.515625	-41.655254
1479.492188	-43.283215
1480.468750	-43.335793
1481.445312	-43.189842
1482.421875	-42.785431
1483.398438	-42.975761
1484.375000	-42.578716
1485.351562	-42.898243
1486.328125	-42.914837
1487.304688	-42.900745
1488.281250	-42.262421
1489.257812	-43.620930
1490.234375	-43.458027
1491.210938	-43.654194
1492.187500	-42.988312
1493.164062	-42.258171
1494.140625	-42.844406
1495.117188	-42.459782
1496.093750	-42.250916
1497.070312	-44.095146
1498.046875	-42.713627
1499.023438	-43.591034
1500.000000	-43.801605
1500.976562	-42.146049
1501.953125	-42.947308
1502.929688	-42.603687
1503.906250	-43.082458
1504.882812	-42.845982
1505.859375	-43.626842
1506.835938	-42.849564
1507.812500	-43.506184
1508.789062	-43.038448
1509.765625	-43.205093
1510.742188	-43.005985
1511.718750	-42.358135
1512.695312	-42.408997
1513.671875	-42.028633
1514.648438	-42.162384
1515.625000	-43.427391
1516.601562	-42.737606
1517.578125	-42.162601
1518.554688	-43.840309
1519.531250	-42.485703
1520.507812	-42.263050
1521.484375	-43.103203
1522.460938	-42.927303
1523.437500	-42.668335
1524.414062	-43.529076
1525.390625	-42.943836
1526.367188	-42.739250
1527.343750	-43.461502
1528.320312	-42.666229
1529.296875	-41.874454
1530.273438	-42.116543
1531.250000	-42.501751
1532.226562	-43.736919
1533.203125	-42.681839
1534.179688	-44.308266
1535.156250	-42.594303
1536.132812	-43.095531
1537.109375	-41.828045
1538.085938	-43.283401
1539.062500	-43.640114
1540.039062	-44.779819
1541.015625	-44.012291
1541.992188	-42.524265
1542.968750	-42.184429
1543.945312	-43.102203
1544.921875	-42.956886
1545.898438	-42.926182
1546.875000	-41.797699
1547.851562	-42.386105
1548.828125	-43.239403
1549.804688	-43.823402
1550.781250	-44.331123
1551.757812	-42.832207
1552.734375	-41.893143
1553.710938	-43.001980
1554.687500	-43.339016
1555.664062	-41.879566
1556.640625	-43.667919
1557.617188	-42.599419
1558.593750	-41.562534
1559.570312	-42.988827
1560.546875	-43.010242
1561.523438	-42.882866
1562.500000	-42.724087
1563.476562	-42.999409
1564.453125	-42.200359
1565.429688	-43.731461
1566.406250	-42.560841
1567.382812	-42.770798
1568.359375	-43.839436
1569.335938	-43.270168
1570.312500	-43.295158
1571.289062	-43.550434
1572.265625	-42.737629
1573.242188	-44.329659
1574.218750	-42.105942
1575.195312	-43.884697
1576.171875	-42.596275
1577.148438	-42.723995
1578.125000	-43.733597
1579.101562	-43.056767
1580.078125	-43.178814
1581.054688	-42.330608
1582.031250	-42.627766
1583.007812	-43.439594
1583.984375	-42.799767
1584.960938	-43.362492
1585.937500	-42.782532
1586.914062	-41.871166
1587.890625	-41.104904
1588.867188	-42.034702
1589.843750	-42.921131
1590.820312	-42.640453
1591.796875	-43.237228
1592.773438	-43.218121
1593.750000	-41.890945
1594.726562	-43.141144
1595.703125	-41.639282
1596.679688	-42.881771
1597.656250	-42.787804
1598.632812	-43.298977
1599.609375	-42.719101
1600.585938	-42.957111
1601.562500	-42.461945
1602.539062	-43.165115
1603.515625	-42.759823
1604.492188	-41.489807
1605.468750	-42.255711
1606.445312	-42.746414
1607.421875	-42.932522
1608.398438	-43.307014
1609.375000	-42.984421
1610.351562	-42.617210
1611.328125	-43.055275
1612.304688	-43.694237
1613.281250	-43.166298
1614.257812	-43.376926
1615.234375	-41.960922
1616.210938	-43.427765
1617.187500	-43.029812
1618.164062	-42.934849
1619.140625	-42.150032
1620.117188	-42.604740
1621.093750	-42.382751
1622.070312	-43.523216
1623.046875	-43.472477
1624.023438	-42.465633
1625.000000	-42.320621
1625.976562	-41.308376
1626.953125	-43.025913
1627.929688	-43.201004
1628.906250	-42.653168
1629.882812	-42.317902
1630.859375	-43.731464
1631.835938	-42.499657
1632.812500	-43.226143
1633.789062	-43.337822
1634.765625	-42.890640
1635.742188	-44.045673
1636.718750	-42.868263
1637.695312	-42.492222
1638.671875	-42.697548
1639.648438	-42.571148
1640.625000	-42.090763
1641.601562	-42.890350
1642.578125	-42.710030
1643.554688	-42.177242
1644.531250	-41.716763
1645.507812	-42.610184
1646.484375	-43.983032
1647.460938	-42.931705
1648.437500	-42.034664
1649.414062	-43.320675
1650.390625	-43.017921
1651.367188	-42.747105
1652.343750	-42.402546
1653.320312	-42.221565
1654.296875	-42.718075
1655.273438	-43.587570
1656.250000	-41.842037
1657.226562	-42.094982
1658.203125	-42.926308
1659.179688	-41.796776
1660.156250	-42.772896
1661.132812	-43.229549
1662.109375	-42.517136
1663.085938	-42.899540
1664.062500	-42.524132
1665.039062	-42.198895
1666.015625	-42.473457
1666.992188	-42.295189
1667.968750	-42.512276
1668.945312	-42.318481
1669.921875	-42.114506
1670.898438	-43.877357
1671.875000	-42.971756
1672.851562	-42.599339
1673.828125	-43.067574
1674.804688	-42.640400
1675.781250	-43.687931
1676.757812	-43.171104
1677.734375	-42.685863
1678.710938	-42.603264
1679.687500	-43.136097
1680.664062	-42.219196
1681.640625	-43.627171
1682.617188	-42.993908
1683.593750	-42.319042
1684.570312	-42.897888
1685.546875	-43.244896
1686.523438	-43.712456
1687.500000	-42.500484
1688.476562	-42.931007
1689.453125	-42.991058
1690.429688	-43.153000
1691.406250	-42.691502
1692.382812	-42.744003
1693.359375	-42.802608
1694.335938	-43.209064
1695.312500	-42.785316
1696.289062	-44.169613
1697.265625	-42.370129
1698.242188	-42.355930
1699.218750	-41.151623
1700.195312	-43.899418
1701.171875	-43.351898
1702.148438	-44.453754
1703.125000	-42.903820
1704.101562	-43.017426
1705.078125	-43.106628
1706.054688	-42.073467
1707.031250	-42.426140
1708.007812	-41.777199
1708.984375	-43.234142
1709.960938	-42.991150
1710.937500	-42.732872
1711.914062	-42.521389
1712.890625	-43.154903
1713.867188	-42.865471
1714.843750	-42.740047
1715.820312	-42.534046
1716.796875	-43.575928
1717.773438	-42.670712
1718.750000	-43.299904
1719.726562	-42.669895
1720.703125	-43.606216
1721.679688	-43.318539
1722.656250	-43.436100
1723.632812	-42.796978
1724.609375	-43.938412
1725.585938	-42.771931
1726.562500	-43.964214
1727.539062	-41.876160
1728.515625	-43.403744
1729.492188	-43.049774
1730.468750	-43.025261
1731.445312	-43.331398
1732.421875	-42.331436
1733.398438	-43.160782
1734.375000	-43.795761
1735.351562	-43.681198
1736.328125	-42.011829
1737.304688	-41.649906
1738.281250	-43.279942
1739.257812	-44.773090
1740.234375	-42.380268
1741.210938	-43.396935
1742.187500	-43.581409
1743.164062	-42.552826
1744.140625	-42.839737
1745.117188	-42.604523
1746.093750	-42.917088
1747.070312	-43.108322
1748.046875	-42.780441
1749.023438	-43.535774
1750.000000	-43.045235
1750.976562	-42.734234
1751.953125	-42.467178
1752.929688	-41.219875
1753.906250	-44.015762
1754.882812	-42.250996
1755.859375	-42.229656
1756.835938	-43.641014
1757.812500	-43.091072
1758.789062	-43.684288
1759.765625	-42.855198
1760.742188	-43.594292
1761.718750	-43.364166
1762.695312	-42.804211
1763.671875	-44.098782
1764.648438	-42.463131
1765.625000	-42.879833
1766.601562	-42.820457
1767.578125	-42.961227
1768.554688	-42.221882
1769.531250	-42.955925
1770.507812	-42.886642
1771.484375	-44.087540
1772.460938	-43.561264
1773.437500	-42.530945
1774.414062	-43.391556
1775.390625	-43.800163
1776.367188	-43.898697
1777.343750	-43.270840
1778.320312	-42.962620
1779.296875	-42.544865
1780.273438	-43.473228
1781.250000	-43.254288
1782.226562	-42.753952
1783.203125	-42.384792
1784.179688	-42.239250
1785.156250	-42.330803
1786.132812	-42.845657
1787.109375	-43.406818
1788.085938	-43.024384
1789.062500	-41.948551
1790.039062	-42.928165
1791.015625	-42.045147
1791.992188	-43.619030
1792.968750	-43.985989
1793.945312	-42.554028
1794.921875	-43.121384
1795.898438	-42.176292
1796.875000	-41.578781
1797.851562	-44.027981
1798.828125	-42.100578
1799.804688	-41.982582
1800.781250	-40.922707
1801.757812	-43.420307
1802.734375	-43.072807
1803.710938	-42.301521
1804.687500	-43.457336
1805.664062	-44.154675
1806.640625	-42.915977
1807.617188	-42.473572
1808.593750	-42.243332
1809.570312	-43.177979
1810.546875	-44.634903
1811.523438	-44.502811
1812.500000	-42.924873
1813.476562	-42.166862
1814.453125	-41.864819
1815.429688	-42.266220
1816.406250	-42.909657
1817.382812	-42.652874
1818.359375	-43.498066
1819.335938	-42.904232
1820.312500	-42.363968
1821.289062	-43.182346
1822.265625	-41.948082
1823.242188	-43.273838
1824.218750	-43.276196
1825.195312	-42.833942
1826.171875	-42.664776
1827.148438	-43.259716
1828.125000	-42.213844
1829.101562	-42.385254
1830.078125	-42.797394
1831.054688	-42.057758
1832.031250	-42.230679
1833.007812	-42.865658
1833.984375	-42.542866
1834.960938	-42.169556
1835.937500	-42.791229
1836.914062	-42.967117
1837.890625	-43.677822
1838.867188	-43.895378
1839.843750	-43.005478
1840.820312	-43.251064
1841.796875	-41.582790
1842.773438	-43.187943
1843.750000	-42.184383
1844.726562	-43.715679
1845.703125	-42.220318
1846.679688	-42.112576
1847.656250	-42.748268
1848.632812	-43.892666
1849.609375	-44.348915
1850.585938	-42.529713
1851.562500	-43.724777
1852.539062	-43.068474
1853.515625	-43.897522
1854.492188	-42.060944
1855.468750	-41.876648
1856.445312	-42.749809
1857.421875	-42.216415
1858.398438	-41.533878
1859.375000	-41.327042
1860.351562	-43.046124
1861.328125	-43.294800
1862.304688	-43.451637
1863.281250	-41.914272
1864.257812	-43.000450
1865.234375	-42.446148
1866.210938	-42.216400
1867.187500	-43.769852
1868.164062	-44.379410
1869.140625	-43.889801
1870.117188	-42.923172
1871.093750	-43.697155
1872.070312	-43.293255
1873.046875	-42.383636
1874.023438	-42.649483
1875.000000	-42.528008
1875.976562	-42.759113
1876.953125	-43.579597
1877.929688	-42.849808
1878.906250	-42.450970
1879.882812	-43.550243
1880.859375	-42.960529
1881.835938	-42.745964
1882.812500	-43.263885
1883.789062	-44.377125
1884.765625	-44.812752
1885.742188	-42.641243
1886.718750	-42.121578
1887.695312	-43.191620
1888.671875	-42.221348
1889.648438	-42.061344
1890.625000	-42.211105
1891.601562	-41.973961
1892.578125	-42.450668
1893.554688	-42.105412
1894.531250	-42.761353
1895.507812	-43.158672
1896.484375	-42.877239
1897.460938	-42.958225
1898.437500	-43.404930
1899.414062	-42.285809
1900.390625	-42.742992
1901.367188	-45.041878
1902.343750	-42.227795
1903.320312	-43.789394
1904.296875	-42.623295
1905.273438	-41.526352
1906.250000	-41.903389
1907.226562	-44.084763
1908.203125	-41.730927
1909.179688	-42.186825
1910.156250	-41.886761
1911.132812	-42.058605
1912.109375	-43.051479
1913.085938	-41.768780
1914.062500	-43.086063
1915.039062	-42.886772
1916.015625	-43.243721
1916.992188	-42.027016
1917.968750	-43.053780
1918.945312	-43.699650
1919.921875	-42.024574
1920.898438	-42.169373
1921.875000	-42.552254
1922.851562	-43.943729
1923.828125	-42.048008
1924.804688	-43.112320
1925.781250	-43.791782
1926.757812	-43.144497
1927.734375	-41.490963
1928.710938	-42.539436
1929.687500	-43.522797
1930.664062	-43.599762
1931.640625	-42.976376
1932.617188	-44.224182
1933.593750	-44.478394
1934.570312	-42.014427
1935.546875	-42.969227
1936.523438	-42.981167
1937.500000	-43.441532
1938.476562	-43.028610
1939.453125	-42.436520
1940.429688	-43.258442
1941.406250	-42.822098
1942.382812	-43.253502
1943.359375	-44.044182
1944.335938	-42.162010
1945.312500	-42.849247
1946.289062	-42.478798
1947.265625	-43.565979
1948.242188	-42.892395
1949.218750	-42.185883
1950.195312	-43.711491
1951.171875	-43.981918
1952.148438	-43.904114
1953.125000	-43.675259
1954.101562	-42.456532
1955.078125	-43.260456
1956.054688	-42.885056
1957.031250	-42.700989
1958.007812	-44.275391
1958.984375	-42.261047
1959.960938	-42.943153
1960.937500	-42.501942
1961.914062	-43.856537
1962.890625	-43.452728
1963.867188	-43.403782
1964.843750	-42.401070
1965.820312	-42.139690
1966.796875	-43.067719
1967.773438	-43.209064
1968.750000	-42.383049
1969.726562	-42.903519
1970.703125	-42.441093
1971.679688	-42.967628
1972.656250	-42.891178
1973.632812	-42.424923
1974.609375	-42.662064
1975.585938	-42.400528
1976.562500	-42.838627
1977.539062	-41.461037
1978.515625	-43.600632
1979.492188	-43.348701
1980.468750	-42.944176
1981.445312	-42.391949
1982.421875	-42.950867
1983.398438	-43.941017
1984.375000	-44.142933
1985.351562	-43.332531
1986.328125	-42.920044
1987.304688	-42.414963
1988.281250	-43.373745
1989.257812	-42.999237
1990.234375	-42.897076
1991.210938	-43.147942
1992.187500	-43.223625
1993.164062	-44.729176
1994.140625	-43.518021
1995.117188	-42.698589
1996.093750	-42.203228
1997.070312	-43.896599
1998.046875	-42.100979
1999.023438	-43.456753
2000.000000	-44.526184
2000.976562	-42.931995
2001.953125	-42.213554
2002.929688	-42.056332
2003.906250	-43.075897
2004.882812	-42.395714
2005.859375	-43.136200
2006.835938	-43.360928
2007.812500	-43.326855
2008.789062	-43.154858
2009.765625	-43.206062
2010.742188	-42.642872
2011.718750	-43.137714
2012.695312	-43.348957
2013.671875	-43.287289
2014.648438	-42.775517
2015.625000	-43.619522
2016.601562	-43.011688
2017.578125	-43.455860
2018.554688	-43.105270
2019.531250	-43.578667
2020.507812	-42.460960
2021.484375	-42.298679
2022.460938	-43.258682
2023.437500	-42.744972
2024.414062	-42.192894
2025.390625	-42.202671
2026.367188	-42.806389
2027.343750	-43.059361
2028.320312	-43.088772
2029.296875	-42.945595
2030.273438	-43.063137
2031.250000	-43.284916
2032.226562	-43.589939
2033.203125	-42.892929
2034.179688	-42.690956
2035.156250	-43.467087
2036.132812	-41.754482
2037.109375	-42.946663
2038.085938	-42.591167
2039.062500	-43.951847
2040.039062	-43.201527
2041.015625	-41.695869
2041.992188	-43.705475
2042.968750	-43.425243
2043.945312	-42.782337
2044.921875	-42.821850
2045.898438	-42.049927
2046.875000	-42.777401
2047.851562	-43.110065
2048.828125	-42.805576
2049.804688	-43.635063
2050.781250	-43.291355
2051.757812	-42.966133
2052.734375	-42.166584
2053.710938	-42.032799
2054.687500	-43.257992
2055.664062	-43.835888
2056.640625	-41.294834
2057.617188	-41.572128
2058.593750	-42.316292
2059.570312	-43.422363
2060.546875	-43.283184
2061.523438	-42.769539
2062.500000	-41.301266
2063.476562	-43.216843
2064.453125	-43.523598
2065.429688	-43.560394
2066.406250	-44.472145
2067.382812	-42.814392
2068.359375	-42.641098
2069.335938	-43.155140
2070.312500	-43.219040
2071.289062	-43.186985
2072.265625	-42.848236
2073.242188	-41.320927
2074.218750	-42.812336
2075.195312	-42.599213
2076.171875	-42.498344
2077.148438	-44.331093
2078.125000	-42.728626
2079.101562	-43.468964
2080.078125	-42.883728
2081.054688	-44.467941
2082.031250	-41.849186
2083.007812	-43.252632
2083.984375	-43.103340
2084.960938	-43.126396
2085.937500	-43.530354
2086.914062	-43.347263
2087.890625	-42.769268
2088.867188	-41.894867
2089.843750	-43.181015
2090.820312	-42.169273
2091.796875	-41.524437
2092.773438	-42.315182
2093.750000	-43.403954
2094.726562	-43.577114
2095.703125	-42.813217
2096.679688	-42.358601
2097.656250	-42.876072
2098.632812	-42.081573
2099.609375	-42.534370
2100.585938	-43.236732
2101.562500	-42.914635
2102.539062	-41.902817
2103.515625	-42.223137
2104.492188	-42.914993
2105.468750	-43.106670
2106.445312	-43.404739
2107.421875	-42.932713
2108.398438	-42.787060
2109.375000	-42.905552
2110.351562	-42.422104
2111.328125	-42.724556
2112.304688	-42.272591
2113.281250	-43.310772
2114.257812	-43.005459
2115.234375	-42.704224
2116.210938	-42.147339
2117.187500	-44.350925
2118.164062	-43.532364
2119.140625	-41.858601
2120.117188	-42.192150
2121.093750	-41.871891
2122.070312	-43.226078
2123.046875	-42.519234
2124.023438	-41.471962
2125.000000	-42.580517
2125.976562	-42.325027
2126.953125	-43.300671
2127.929688	-43.107769
2128.906250	-41.702812
2129.882812	-43.601318
2130.859375	-43.869293
2131.835938	-42.445034
2132.812500	-42.004112
2133.789062	-44.996502
2134.765625	-44.353580
2135.742188	-40.986713
2136.718750	-42.874622
2137.695312	-43.113106
2138.671875	-43.540051
2139.648438	-44.572098
2140.625000	-42.997879
2141.601562	-43.466503
2142.578125	-43.077522
2143.554688	-43.400341
2144.531250	-43.790154
2145.507812	-43.672127
2146.484375	-42.084900
2147.460938	-42.123898
2148.437500	-42.270344
2149.414062	-43.303112
2150.390625	-41.674351
2151.367188	-43.121037
2152.343750	-43.557613
2153.320312	-42.735836
2154.296875	-43.865913
2155.273438	-42.274357
2156.250000	-42.956917
2157.226562	-43.380791
2158.203125	-42.931431
2159.179688	-43.033047
2160.156250	-43.765400
2161.132812	-43.909969
2162.109375	-41.759930
2163.085938	-43.206989
2164.062500	-42.466782
2165.039062	-42.497696
2166.015625	-43.166477
2166.992188	-42.840382
2167.968750	-42.563469
2168.945312	-42.187103
2169.921875	-42.452568
2170.898438	-43.035904
2171.875000	-41.328018
2172.851562	-42.561649
2173.828125	-41.701878
2174.804688	-42.796341
2175.781250	-44.069519
2176.757812	-43.929237
2177.734375	-42.345760
2178.710938	-43.547695
2179.687500	-42.672359
2180.664062	-44.787971
2181.640625	-44.113892
2182.617188	-43.427155
2183.593750	-41.877529
2184.570312	-42.314575
2185.546875	-43.144627
2186.523438	-43.261269
2187.500000	-43.220345
2188.476562	-42.067940
2189.453125	-42.220798
2190.429688	-43.263165
2191.406250	-44.227306
2192.382812	-43.740753
2193.359375	-42.577408
2194.335938	-43.628048
2195.312500	-43.998474
2196.289062	-42.837032
2197.265625	-42.176186
2198.242188	-42.448032
2199.218750	-41.478748
2200.195312	-42.381962
2201.171875	-41.781815
2202.148438	-43.669971
2203.125000	-42.834663
2204.101562	-41.965214
2205.078125	-42.937138
2206.054688	-42.777775
2207.031250	-43.806835
2208.007812	-43.811073
2208.984375	-42.133301
2209.960938	-42.049397
2210.937500	-42.195065
2211.914062	-42.927246
2212.890625	-42.886860
2213.867188	-41.735775
2214.843750	-43.185562
2215.820312	-42.466057
2216.796875	-42.252995
2217.773438	-42.290192
2218.750000	-41.928890
2219.726562	-42.169170
2220.703125	-42.496868
2221.679688	-42.702427
2222.656250	-41.549541
2223.632812	-41.938179
2224.609375	-42.856598
2225.585938	-43.740593
2226.562500	-41.735241
2227.539062	-42.254421
2228.515625	-42.372322
2229.492188	-42.066578
2230.468750	-42.288345
2231.445312	-43.348682
2232.421875	-42.988621
2233.398438	-41.668907
2234.375000	-42.848015
2235.351562	-43.074413
2236.328125	-43.521481
2237.304688	-42.437561
2238.281250	-42.754772
2239.257812	-42.442101
2240.234375	-42.864838
2241.210938	-42.651958
2242.187500	-43.632580
2243.164062	-42.353706
2244.140625	-43.122433
2245.117188	-43.065212
2246.093750	-42.872643
2247.070312	-42.020039
2248.046875	-43.993286
2249.023438	-43.570190
2250.000000	-42.009766
2250.976562	-41.241631
2251.953125	-42.769402
2252.929688	-43.247089
2253.906250	-42.221447
2254.882812	-43.989090
2255.859375	-42.746376
2256.835938	-42.388195
2257.812500	-42.880074
2258.789062	-43.444843
2259.765625	-42.712109
2260.742188	-43.731232
2261.718750	-42.999573
2262.695312	-42.996052
2263.671875	-42.802223
2264.648438	-42.422333
2265.625000	-42.268658
2266.601562	-42.821930
2267.578125	-41.494991
2268.554688	-42.592548
2269.531250	-42.478458
2270.507812	-42.122063
2271.484375	-43.559235
2272.460938	-42.791790
2273.437500	-42.563549
2274.414062	-42.849281
2275.390625	-43.076767
2276.367188	-43.310764
2277.343750	-43.227684
2278.320312	-42.317806
2279.296875	-42.801682
2280.273438	-42.951588
2281.250000	-43.242981
2282.226562	-44.402126
2283.203125	-42.942284
2284.179688	-42.632187
2285.156250	-44.947193
2286.132812	-43.125103
2287.109375	-43.686550
2288.085938	-42.385872
2289.062500	-42.340393
2290.039062	-42.925552
2291.015625	-43.786709
2291.992188	-42.000416
2292.968750	-41.635540
2293.945312	-42.624992
2294.921875	-43.427864
2295.898438	-43.054031
2296.875000	-43.830334
2297.851562	-42.150013
2298.828125	-44.464233
2299.804688	-43.042824
2300.781250	-42.711239
2301.757812	-42.690533
2302.734375	-42.609520
2303.710938	-42.346661
2304.687500	-41.850807
2305.664062	-43.361099
2306.640625	-42.661617
2307.617188	-42.753269
2308.593750	-42.586056
2309.570312	-42.460514
2310.546875	-41.593163
2311.523438	-43.453312
2312.500000	-42.261169
2313.476562	-42.704834
2314.453125	-42.728802
2315.429688	-42.588703
2316.406250	-42.583591
2317.382812	-44.174614
2318.359375	-43.775909
2319.335938	-43.185154
2320.312500	-43.129799
2321.289062	-42.605167
2322.265625	-41.770523
2323.242188	-43.278519
2324.218750	-42.382710
2325.195312	-43.449978
2326.171875	-42.443771
2327.148438	-42.251305
2328.125000	-41.909061
2329.101562	-42.524429
2330.078125	-42.021389
2331.054688	-41.937229
2332.031250	-41.688007
2333.007812	-43.428272
2333.984375	-43.076286
2334.960938	-43.035721
2335.937500	-42.931339
2336.914062	-43.061543
2337.890625	-43.517769
2338.867188	-43.227398
2339.843750	-42.037640
2340.820312	-42.389603
2341.796875	-42.611649
2342.773438	-42.702164
2343.750000	-43.729031
2344.726562	-42.681080
2345.703125	-42.490841
2346.679688	-40.941917
2347.656250	-42.749107
2348.632812	-44.758965
2349.609375	-42.608932
2350.585938	-43.339554
2351.562500	-43.001732
2352.539062	-41.925251
2353.515625	-43.859486
2354.492188	-42.620033
2355.468750	-43.037483
2356.445312	-42.180672
2357.421875	-42.841976
2358.398438	-43.576347
2359.375000	-42.920452
2360.351562	-43.447456
2361.328125	-43.413090
2362.304688	-43.462364
2363.281250	-43.229046
2364.257812	-42.679443
2365.234375	-42.160034
2366.210938	-42.750755
2367.187500	-42.992516
2368.164062	-43.000835
2369.140625	-43.356953
2370.117188	-42.805084
2371.093750	-42.270638
2372.070312	-43.060837
2373.046875	-44.241508
2374.023438	-42.935585
2375.000000	-42.884922
2375.976562	-42.552044
2376.953125	-43.785843
2377.929688	-43.567501
2378.906250	-42.785645
2379.882812	-44.554646
2380.859375	-43.203087
2381.835938	-43.835171
2382.812500	-42.983074
2383.789062	-43.770641
2384.765625	-43.740623
2385.742188	-43.120434
2386.718750	-42.725174
2387.695312	-43.315075
2388.671875	-44.243492
2389.648438	-43.382767
2390.625000	-44.157696
2391.601562	-42.268749
2392.578125	-42.274181
2393.554688	-42.434498
2394.531250	-41.825539
2395.507812	-43.296181
2396.484375	-43.233356
2397.460938	-41.917103
2398.437500	-42.660217
2399.414062	-43.857128
2400.390625	-42.793266
2401.367188	-42.507984
2402.343750	-42.666889
2403.320312	-42.585548
2404.296875	-41.633781
2405.273438	-42.289234
2406.250000	-44.629131
2407.226562	-42.186329
2408.203125	-44.298763
2409.179688	-43.932987
2410.156250	-43.290493
2411.132812	-43.349751
2412.109375	-42.010338
2413.085938	-42.753105
2414.062500	-42.182693
2415.039062	-42.572269
2416.015625	-41.782520
2416.992188	-42.251598
2417.968750	-41.850597
2418.945312	-41.893162
2419.921875	-43.237587
2420.898438	-42.305805
2421.875000	-43.233570
2422.851562	-42.826035
2423.828125	-42.898510
2424.804688	-42.993614
2425.781250	-42.865150
2426.757812	-44.102932
2427.734375	-42.275959
2428.710938	-44.114239
2429.687500	-42.106373
2430.664062	-42.672348
2431.640625	-42.983330
2432.617188	-42.568443
2433.593750	-43.097927
2434.570312	-43.157185
2435.546875	-43.968918
2436.523438	-43.553478
2437.500000	-43.675953
2438.476562	-42.440235
2439.453125	-42.420677
2440.429688	-44.797432
2441.406250	-43.132607
2442.382812	-43.780552
2443.359375	-44.162056
2444.335938	-42.689198
2445.312500	-43.101002
2446.289062	-43.492470
2447.265625	-42.896931
2448.242188	-43.482040
2449.218750	-43.281780
2450.195312	-42.205688
2451.171875	-42.041439
2452.148438	-42.192085
2453.125000	-42.583752
2454.101562	-42.651295
2455.078125	-42.353748
2456.054688	-44.494785
2457.031250	-42.347942
2458.007812	-41.947281
2458.984375	-43.625965
2459.960938	-42.868824
2460.937500	-43.274490
2461.914062	-42.541058
2462.890625	-42.881680
2463.867188	-41.499435
2464.843750	-41.205334
2465.820312	-43.379021
2466.796875	-42.327972
2467.773438	-43.806976
2468.750000	-43.844345
2469.726562	-43.911697
2470.703125	-43.729027
2471.679688	-43.537258
2472.656250	-43.382000
2473.632812	-41.520443
2474.609375	-43.351727
2475.585938	-43.227825
2476.562500	-42.668400
2477.539062	-44.655235
2478.515625	-43.213951
2479.492188	-42.862000
2480.468750	-42.741989
2481.445312	-43.597691
2482.421875	-42.755962
2483.398438	-42.943794
2484.375000	-43.312599
2485.351562	-43.483711
2486.328125	-41.817230
2487.304688	-41.626350
2488.281250	-43.234058
2489.257812	-42.895939
2490.234375	-41.856995
2491.210938	-43.473312
2492.187500	-43.700397
2493.164062	-42.800301
2494.140625	-41.917671
2495.117188	-43.123993
2496.093750	-43.602036
2497.070312	-42.795918
2498.046875	-43.103359
2499.023438	-42.608517
2500.000000	-43.032673
2500.976562	-42.386250
2501.953125	-42.615891
2502.929688	-42.279099
2503.906250	-44.051754
2504.882812	-41.913406
2505.859375	-43.064056
2506.835938	-43.927654
2507.812500	-42.589676
2508.789062	-44.023865
2509.765625	-43.840076
2510.742188	-43.284855
2511.718750	-42.595272
2512.695312	-42.889332
2513.671875	-43.442829
2514.648438	-42.887642
2515.625000	-43.749985
2516.601562	-42.425690
2517.578125	-42.368237
2518.554688	-43.053780
2519.531250	-43.690662
2520.507812	-42.664413
2521.484375	-43.210587
2522.460938	-42.930046
2523.437500	-43.199104
2524.414062	-43.263165
2525.390625	-43.007381
2526.367188	-42.714390
2527.343750	-42.762707
2528.320312	-42.515469
2529.296875	-42.596535
2530.273438	-42.404472
2531.250000	-42.142387
2532.226562	-42.359428
2533.203125	-43.548992
2534.179688	-43.762321
2535.156250	-44.658024
2536.132812	-44.102726
2537.109375	-43.853207
2538.085938	-42.697578
2539.062500	-42.839142
2540.039062	-44.244171
2541.015625	-41.943741
2541.992188	-43.293213
2542.968750	-42.336147
2543.945312	-42.829254
2544.921875	-43.086193
2545.898438	-43.844055
2546.875000	-42.280136
2547.851562	-41.991879
2548.828125	-43.279186
2549.804688	-42.303211
2550.781250	-42.030174
2551.757812	-42.829464
2552.734375	-42.369511
2553.710938	-41.364059
2554.687500	-43.595692
2555.664062	-45.098469
2556.640625	-43.304012
2557.617188	-42.751797
2558.593750	-42.332047
2559.570312	-42.781883
2560.546875	-42.658764
2561.523438	-43.588417
2562.500000	-44.185680
2563.476562	-43.932022
2564.453125	-41.982727
2565.429688	-42.645435
2566.406250	-44.052349
2567.382812	-43.146782
2568.359375	-43.068840
2569.335938	-42.601311
2570.312500	-42.669628
2571.289062	-42.282776
2572.265625	-43.125202
2573.242188	-43.472389
2574.218750	-42.553528
2575.195312	-43.217587
2576.171875	-42.210007
2577.148438	-42.375839
2578.125000	-41.477608
2579.101562	-42.293690
2580.078125	-43.378880
2581.054688	-43.233940
2582.031250	-42.916904
2583.007812	-43.680504
2583.984375	-43.256653
2584.960938	-42.766003
2585.937500	-42.861725
2586.914062	-42.757408
2587.890625	-42.665611
2588.867188	-42.328705
2589.843750	-42.630886
2590.820312	-43.601078
2591.796875	-41.707588
2592.773438	-43.412533
2593.750000	-41.857464
2594.726562	-44.373703
2595.703125	-43.760502
2596.679688	-42.959656
2597.656250	-41.779892
2598.632812	-41.140823
2599.609375	-43.346279
2600.585938	-43.038151
2601.562500	-43.352470
2602.539062	-43.523716
2603.515625	-42.451054
2604.492188	-43.790703
2605.468750	-43.317333
2606.445312	-41.313221
2607.421875	-43.776482
2608.398438	-41.238792
2609.375000	-41.935200
2610.351562	-42.019707
2611.328125	-43.531567
2612.304688	-43.436214
2613.281250	-42.044891
2614.257812	-42.978241
2615.234375	-42.917065
2616.210938	-43.013584
2617.187500	-43.611954
2618.164062	-42.155231
2619.140625	-42.020821
2620.117188	-42.982624
2621.093750	-42.527241
2622.070312	-43.628220
2623.046875	-43.085846
2624.023438	-43.092510
2625.000000	-43.414158
2625.976562	-42.574463
2626.953125	-43.616623
2627.929688	-42.514744
2628.906250	-42.373360
2629.882812	-42.606037
2630.859375	-41.306591
2631.835938	-42.342785
2632.812500	-43.186550
2633.789062	-43.561512
2634.765625	-43.157757
2635.742188	-43.152573
2636.718750	-43.850998
2637.695312	-43.880928
2638.671875	-43.950287
2639.648438	-42.139561
2640.625000	-43.256580
2641.601562	-42.779041
2642.578125	-42.727764
2643.554688	-41.916748
2644.531250	-41.710655
2645.507812	-42.006241
2646.484375	-42.664558
2647.460938	-41.663361
2648.437500	-42.730072
2649.414062	-42.086479
2650.390625	-41.690598
2651.367188	-42.554478
2652.343750	-41.729225
2653.320312	-44.082703
2654.296875	-43.780010
2655.273438	-41.995258
2656.250000	-41.051987
2657.226562	-43.052509
2658.203125	-41.891743
2659.179688	-42.106590
2660.156250	-43.116741
2661.132812	-42.855186
2662.109375	-42.712891
2663.085938	-42.914837
2664.062500	-44.524082
2665.039062	-43.236546
2666.015625	-43.498928
2666.992188	-42.837006
2667.968750	-41.996151
2668.945312	-42.758453
2669.921875	-42.974594
2670.898438	-42.479931
2671.875000	-42.038616
2672.851562	-42.225117
2673.828125	-43.402443
2674.804688	-42.641708
2675.781250	-42.963078
2676.757812	-44.021622
2677.734375	-44.312149
2678.710938	-42.567875
2679.687500	-42.601734
2680.664062	-43.336109
2681.640625	-42.837093
2682.617188	-43.090061
2683.593750	-43.449047
2684.570312	-43.738434
2685.546875	-44.396568
2686.523438	-44.508492
2687.500000	-42.226196
2688.476562	-43.314201
2689.453125	-42.804340
2690.429688	-43.829414
2691.406250	-43.554184
2692.382812	-43.159218
2693.359375	-42.710003
2694.335938	-43.601429
2695.312500	-43.487789
2696.289062	-42.992889
2697.265625	-42.497929
2698.242188	-42.417381
2699.218750	-42.733295
2700.195312	-42.814762
2701.171875	-43.078892
2702.148438	-43.348743
2703.125000	-41.661213
2704.101562	-43.441837
2705.078125	-43.384613
2706.054688	-41.906254
2707.031250	-43.684612
2708.007812	-42.431961
2708.984375	-41.557961
2709.960938	-43.093048
2710.937500	-42.340527
2711.914062	-43.891663
2712.890625	-43.529510
2713.867188	-43.480053
2714.843750	-43.192314
2715.820312	-42.990788
2716.796875	-42.720100
2717.773438	-43.069160
2718.750000	-42.678070
2719.726562	-43.232567
2720.703125	-42.318127
2721.679688	-43.119026
2722.656250	-41.927319
2723.632812	-43.863354
2724.609375	-42.216324
2725.585938	-43.178879
2726.562500	-42.182877
2727.539062	-42.022278
2728.515625	-42.946308
2729.492188	-43.047379
2730.468750	-42.251495
2731.445312	-43.293812
2732.421875	-44.895134
2733.398438	-43.839622
2734.375000	-42.342827
2735.351562	-43.549622
2736.328125	-42.926716
2737.304688	-42.748688
2738.281250	-42.382229
2739.257812	-42.866405
2740.234375	-43.233120
2741.210938	-43.111820
2742.187500	-44.234203
2743.164062	-43.153065
2744.140625	-43.384617
2745.117188	-41.594906
2746.093750	-42.539413
2747.070312	-42.887623
2748.046875	-43.454781
2749.023438	-43.109562
2750.000000	-42.285801
2750.976562	-43.468540
2751.953125	-42.878353
2752.929688	-42.457607
2753.906250	-43.402821
2754.882812	-41.936886
2755.859375	-43.604279
2756.835938	-42.511890
2757.812500	-42.654736
2758.789062	-41.955723
2759.765625	-42.092529
2760.742188	-42.291779
2761.718750	-42.401596
2762.695312	-41.927254
2763.671875	-41.735382
2764.648438	-43.898323
2765.625000	-43.091549
2766.601562	-42.789959
2767.578125	-41.750130
2768.554688	-43.088936
2769.531250	-42.388493
2770.507812	-42.426022
2771.484375	-42.104176
2772.460938	-43.673607
2773.437500	-43.107185
2774.414062	-42.486183
2775.390625	-43.135868
2776.367188	-42.672600
2777.343750	-43.052925
2778.320312	-43.190701
2779.296875	-43.360657
2780.273438	-42.962765
2781.250000	-43.220848
2782.226562	-43.097958
2783.203125	-43.863342
2784.179688	-43.584728
2785.156250	-43.302799
2786.132812	-43.076534
2787.109375	-43.776222
2788.085938	-43.387020
2789.062500	-44.131966
2790.039062	-43.272549
2791.015625	-43.447586
2791.992188	-43.459351
2792.968750	-42.696735
2793.945312	-43.249596
2794.921875	-43.294201
2795.898438	-42.408562
2796.875000	-43.938683
2797.851562	-43.273151
2798.828125	-43.422417
2799.804688	-42.829906
2800.781250	-43.136585
2801.757812	-43.356911
2802.734375	-42.831726
2803.710938	-43.865757
2804.687500	-43.847569
2805.664062	-42.803596
2806.640625	-42.367645
2807.617188	-42.749340
2808.593750	-43.385105
2809.570312	-43.688091
2810.546875	-43.442631
2811.523438	-43.233334
2812.500000	-44.386627
2813.476562	-42.846169
2814.453125	-43.396927
2815.429688	-43.465378
2816.406250	-42.903393
2817.382812	-42.425861
2818.359375	-42.757481
2819.335938	-42.312313
2820.312500	-41.795609
2821.289062	-43.272549
2822.265625	-42.770954
2823.242188	-41.632328
2824.218750	-42.201275
2825.195312	-43.133385
2826.171875	-42.426598
2827.148438	-42.815044
2828.125000	-42.474510
2829.101562	-43.327408
2830.078125	-42.810612
2831.054688	-41.440075
2832.031250	-42.288990
2833.007812	-43.050907
2833.984375	-42.963814
2834.960938	-43.118237
2835.937500	-42.318756
2836.914062	-42.797523
2837.890625	-43.715038
2838.867188	-43.076565
2839.843750	-42.543266
2840.820312	-43.472244
2841.796875	-41.890564
2842.773438	-42.616360
2843.750000	-42.815712
2844.726562	-42.288376
2845.703125	-42.309330
2846.679688	-42.591690
2847.656250	-43.205460
2848.632812	-42.500309
2849.609375	-42.460712
2850.585938	-42.267735
2851.562500	-43.722652
2852.539062	-43.195892
2853.515625	-42.540161
2854.492188	-42.866703
2855.468750	-42.135483
2856.445312	-42.451618
2857.421875	-43.813000
2858.398438	-42.352997
2859.375000	-43.692657
2860.351562	-43.187679
2861.328125	-42.310825
2862.304688	-43.535938
2863.281250	-42.614265
2864.257812	-41.655098
2865.234375	-42.526596
2866.210938	-43.023468
2867.187500	-43.135246
2868.164062	-41.878033
2869.140625	-41.533424
2870.117188	-42.802231
2871.093750	-42.554012
2872.070312	-42.767448
2873.046875	-42.362305
2874.023438	-42.398037
2875.000000	-42.663414
2875.976562	-43.091831
2876.953125	-43.271561
2877.929688	-42.587173
2878.906250	-41.722069
2879.882812	-43.788853
2880.859375	-42.568684
2881.835938	-42.248981
2882.812500	-41.690788
2883.789062	-42.866116
2884.765625	-42.231228
2885.742188	-42.772343
2886.718750	-42.460583
2887.695312	-41.717102
2888.671875	-42.316639
2889.648438	-42.499138
2890.625000	-42.948212
2891.601562	-42.943466
2892.578125	-43.628754
2893.554688	-42.534927
2894.531250	-42.315758
2895.507812	-43.214119
2896.484375	-42.266140
2897.460938	-42.780754
2898.437500	-42.166080
2899.414062	-41.793533
2900.390625	-41.644691
2901.367188	-42.383774
2902.343750	-42.106216
2903.320312	-42.333492
2904.296875	-43.575485
2905.273438	-43.001057
2906.250000	-43.340084
2907.226562	-42.187317
2908.203125	-41.802998
2909.179688	-43.986885
2910.156250	-43.515350
2911.132812	-42.605568
2912.109375	-42.486519
2913.085938	-43.388504
2914.062500	-43.068436
2915.039062	-43.512215
2916.015625	-43.778351
2916.992188	-43.157192
2917.968750	-42.544563
2918.945312	-42.572674
2919.921875	-42.785511
2920.898438	-42.490673
2921.875000	-42.248241
2922.851562	-44.112362
2923.828125	-43.171936
2924.804688	-42.223164
2925.781250	-42.821854
2926.757812	-42.650162
2927.734375	-42.922138
2928.710938	-43.241970
2929.687500	-43.327110
2930.664062	-42.616608
2931.640625	-44.839985
2932.617188	-43.708504
2933.593750	-43.448902
2934.570312	-42.696217
2935.546875	-43.462059
2936.523438	-42.492851
2937.500000	-41.580013
2938.476562	-43.396404
2939.453125	-41.613678
2940.429688	-43.111877
2941.406250	-42.714687
2942.382812	-42.114273
2943.359375	-41.807133
2944.335938	-41.813824
2945.312500	-42.181881
2946.289062	-42.389545
2947.265625	-43.062614
2948.242188	-42.984280
2949.218750	-42.283970
2950.195312	-43.267818
2951.171875	-42.629429
2952.148438	-42.839954
2953.125000	-42.298756
2954.101562	-41.676144
2955.078125	-42.782593
2956.054688	-42.515163
2957.031250	-42.954025
2958.007812	-42.726898
2958.984375	-42.883667
2959.960938	-43.073029
2960.937500	-42.103611
2961.914062	-42.356838
2962.890625	-41.968826
2963.867188	-42.161819
2964.843750	-42.570408
2965.820312	-42.934074
2966.796875	-42.514347
2967.773438	-42.546661
2968.750000	-42.796165
2969.726562	-43.532558
2970.703125	-44.584312
2971.679688	-43.266930
2972.656250	-43.092899
2973.632812	-43.664036
2974.609375	-43.665730
2975.585938	-42.082577
2976.562500	-41.740314
2977.539062	-42.361485
2978.515625	-43.192600
2979.492188	-43.035984
2980.468750	-43.882504
2981.445312	-42.043358
2982.421875	-42.816467
2983.398438	-42.270382
2984.375000	-43.780983
2985.351562	-43.788681
2986.328125	-42.724815
2987.304688	-42.646320
2988.281250	-42.745831
2989.257812	-43.275562
2990.234375	-44.501152
2991.210938	-43.535007
2992.187500	-42.015022
2993.164062	-42.523983
2994.140625	-42.333626
2995.117188	-43.309681
2996.093750	-44.882645
2997.070312	-42.660435
2998.046875	-43.598469
2999.023438	-43.708015
3000.000000	-42.836285
3000.976562	-42.786793
3001.953125	-42.675838
3002.929688	-44.041313
3003.906250	-42.820637
3004.882812	-42.904022
3005.859375	-42.705681
3006.835938	-41.442390
3007.812500	-43.120903
3008.789062	-42.671944
3009.765625	-42.309517
3010.742188	-42.342941
3011.718750	-42.426300
3012.695312	-43.309307
3013.671875	-42.757195
3014.648438	-42.975746
3015.625000	-43.698895
3016.601562	-43.386456
3017.578125	-42.669159
3018.554688	-42.137840
3019.531250	-42.910938
3020.507812	-44.197330
3021.484375	-43.553585
3022.460938	-43.496269
3023.437500	-43.746132
3024.414062	-42.644035
3025.390625	-43.500698
3026.367188	-42.504765
3027.343750	-43.367569
3028.320312	-42.051579
3029.296875	-43.641636
3030.273438	-43.086487
3031.250000	-43.410610
3032.226562	-43.632401
3033.203125	-43.951351
3034.179688	-43.603981
3035.156250	-43.401413
3036.132812	-43.266926
3037.109375	-41.952381
3038.085938	-42.207031
3039.062500	-43.392651
3040.039062	-42.634686
3041.015625	-42.428799
3041.992188	-42.377399
3042.968750	-42.244350
3043.945312	-44.324463
3044.921875	-43.681747
3045.898438	-42.967903
3046.875000	-43.157814
3047.851562	-43.325691
3048.828125	-44.096817
3049.804688	-42.251961
3050.781250	-43.240704
3051.757812	-43.036835
3052.734375	-43.231499
3053.710938	-44.073620
3054.687500	-43.183006
3055.664062	-44.507072
3056.640625	-42.321442
3057.617188	-43.049065
3058.593750	-42.676563
3059.570312	-43.586678
3060.546875	-42.660095
3061.523438	-42.514542
3062.500000	-43.349121
3063.476562	-43.372948
3064.453125	-43.236488
3065.429688	-43.140091
3066.406250	-43.792793
3067.382812	-43.011204
3068.359375	-43.114399
3069.335938	-43.791878
3070.312500	-43.774998
3071.289062	-42.443188
3072.265625	-42.227764
3073.242188	-43.399387
3074.218750	-43.399498
3075.195312	-43.109833
3076.171875	-42.257423
3077.148438	-42.396717
3078.125000	-43.276852
3079.101562	-43.357975
3080.078125	-41.648205
3081.054688	-42.897156
3082.031250	-43.414825
3083.007812	-41.854576
3083.984375	-44.563232
3084.960938	-43.245197
3085.937500	-42.922127
3086.914062	-43.458221
3087.890625	-44.820438
3088.867188	-43.303524
3089.843750	-42.039558
3090.820312	-43.869205
3091.796875	-42.842361
3092.773438	-44.086597
3093.750000	-43.402317
3094.726562	-42.357208
3095.703125	-43.369644
3096.679688	-43.156792
3097.656250	-42.973339
3098.632812	-41.921597
3099.609375	-42.632179
3100.585938	-42.337833
3101.562500	-42.703083
3102.539062	-42.058342
3103.515625	-42.517689
3104.492188	-43.355301
3105.468750	-42.457863
3106.445312	-42.293053
3107.421875	-42.868183
3108.398438	-43.414825
3109.375000	-42.649918
3110.351562	-42.684448
3111.328125	-43.186935
3112.304688	-42.921967
3113.281250	-42.533092
3114.257812	-41.498020
3115.234375	-42.590599
3116.210938	-42.916271
3117.187500	-43.953018
3118.164062	-42.368763
3119.140625	-41.948174
3120.117188	-42.764465
3121.093750	-42.798443
3122.070312	-42.521336
3123.046875	-43.153717
3124.023438	-42.597527
3125.000000	-42.700809
3125.976562	-41.429035
3126.953125	-42.850296
3127.929688	-43.372536
3128.906250	-43.086967
3129.882812	-42.103653
3130.859375	-42.104984
3131.835938	-43.084572
3132.812500	-42.757248
3133.789062	-42.562817
3134.765625	-43.148685
3135.742188	-42.831394
3136.718750	-42.448257
3137.695312	-42.635502
3138.671875	-44.464432
3139.648438	-42.172760
3140.625000	-43.720734
3141.601562	-44.072392
3142.578125	-42.771446
3143.554688	-43.928318
3144.531250	-41.896572
3145.507812	-42.719578
3146.484375	-42.738796
3147.460938	-41.620201
3148.437500	-42.640526
3149.414062	-42.634937
3150.390625	-42.459923
3151.367188	-42.392445
3152.343750	-42.542141
3153.320312	-43.411457
3154.296875	-42.126804
3155.273438	-42.536831
3156.250000	-43.286461
3157.226562	-41.890224
3158.203125	-42.233818
3159.179688	-42.237099
3160.156250	-44.139736
3161.132812	-43.526485
3162.109375	-42.089970
3163.085938	-43.961689
3164.062500	-43.233707
3165.039062	-43.893787
3166.015625	-42.897774
3166.992188	-41.950039
3167.968750	-43.561779
3168.945312	-43.028172
3169.921875	-41.884480
3170.898438	-41.750530
3171.875000	-42.217247
3172.851562	-43.413593
3173.828125	-42.972961
3174.804688	-43.834362
3175.781250	-42.586945
3176.757812	-42.200947
3177.734375	-42.313633
3178.710938	-43.008511
3179.687500	-41.291454
3180.664062	-42.487267
3181.640625	-42.670635
3182.617188	-41.952080
3183.593750	-42.837856
3184.570312	-42.053402
3185.546875	-43.172607
3186.523438	-42.330524
3187.500000	-41.877308
3188.476562	-43.210842
3189.453125	-42.941071
3190.429688	-41.385498
3191.406250	-41.693283
3192.382812	-43.682976
3193.359375	-44.339413
3194.335938	-43.346638
3195.312500	-43.574726
3196.289062	-43.050045
3197.265625	-42.314518
3198.242188	-43.875023
3199.218750	-42.244194
3200.195312	-43.628941
3201.171875	-42.521744
3202.148438	-42.507317
3203.125000	-43.055744
3204.101562	-42.736656
3205.078125	-43.048004
3206.054688	-42.139339
3207.031250	-42.533562
3208.007812	-42.294037
3208.984375	-42.269691
3209.960938	-42.574776
3210.937500	-41.884193
3211.914062	-42.469074
3212.890625	-44.576786
3213.867188	-42.345066
3214.843750	-43.474579
3215.820312	-42.875340
3216.796875	-42.607628
3217.773438	-43.009644
3218.750000	-42.010311
3219.726562	-43.413025
3220.703125	-43.290596
3221.679688	-43.419270
3222.656250	-43.001900
3223.632812	-42.224766
3224.609375	-43.642708
3225.585938	-43.923870
3226.562500	-43.641731
3227.539062	-43.560570
3228.515625	-43.565002
3229.492188	-42.562218
3230.468750	-42.501587
3231.445312	-42.708088
3232.421875	-43.726257
3233.398438	-42.353985
3234.375000	-42.990021
3235.351562	-42.513283
3236.328125	-43.407467
3237.304688	-43.107693
3238.281250	-43.593380
3239.257812	-43.148815
3240.234375	-43.179020
3241.210938	-41.771976
3242.187500	-41.600075
3243.164062	-41.637901
3244.140625	-42.588886
3245.117188	-43.718113
3246.093750	-43.438698
3247.070312	-42.726364
3248.046875	-42.714272
3249.023438	-42.899986
3250.000000	-42.630234
3250.976562	-41.538700
3251.953125	-42.466805
3252.929688	-41.761253
3253.906250	-42.422520
3254.882812	-42.781910
3255.859375	-42.816410
3256.835938	-42.441078
3257.812500	-43.080349
3258.789062	-43.610966
3259.765625	-42.108936
3260.742188	-43.680058
3261.718750	-42.805325
3262.695312	-42.959110
3263.671875	-43.890568
3264.648438	-41.765759
3265.625000	-43.486214
3266.601562	-41.839546
3267.578125	-43.366356
3268.554688	-43.322052
3269.531250	-42.559105
3270.507812	-43.684898
3271.484375	-42.851925
3272.460938	-42.861954
3273.437500	-43.850380
3274.414062	-44.766548
3275.390625	-41.900463
3276.367188	-42.353092
3277.343750	-42.197021
3278.320312	-44.559631
3279.296875	-42.054642
3280.273438	-41.482113
3281.250000	-41.926300
3282.226562	-42.509090
3283.203125	-43.176460
3284.179688	-43.417412
3285.156250	-42.052906
3286.132812	-42.904800
3287.109375	-44.000904
3288.085938	-43.463196
3289.062500	-42.752712
3290.039062	-42.495842
3291.015625	-42.667759
3291.992188	-43.585861
3292.968750	-43.265003
3293.945312	-43.251392
3294.921875	-42.842949
3295.898438	-42.697514
3296.875000	-43.084145
3297.851562	-42.768005
3298.828125	-43.154503
3299.804688	-43.357609
3300.781250	-43.836048
3301.757812	-42.393627
3302.734375	-42.889977
3303.710938	-42.683075
3304.687500	-43.231163
3305.664062	-43.463875
3306.640625	-44.032307
3307.617188	-44.432991
3308.593750	-43.976768
3309.570312	-42.116749
3310.546875	-42.635258
3311.523438	-43.168049
3312.500000	-41.957890
3313.476562	-45.813492
3314.453125	-44.227341
3315.429688	-43.367428
3316.406250	-42.160107
3317.382812	-42.784866
3318.359375	-42.906754
3319.335938	-44.282139
3320.312500	-42.376907
3321.289062	-42.559727
3322.265625	-43.307152
3323.242188	-42.753620
3324.218750	-42.190376
3325.195312	-42.681362
3326.171875	-42.765785
3327.148438	-43.125809
3328.125000	-42.875854
3329.101562	-43.837116
3330.078125	-43.020340
3331.054688	-42.107819
3332.031250	-43.834362
3333.007812	-43.706718
3333.984375	-44.654015
3334.960938	-43.407543
3335.937500	-42.332787
3336.914062	-42.872158
3337.890625	-43.187363
3338.867188	-42.467598
3339.843750	-42.163059
3340.820312	-42.757111
3341.796875	-42.081825
3342.773438	-43.209770
3343.750000	-43.351875
3344.726562	-42.729286
3345.703125	-42.748116
3346.679688	-43.325115
3347.656250	-41.434292
3348.632812	-43.848930
3349.609375	-43.512356
3350.585938	-42.646858
3351.562500	-43.492748
3352.539062	-41.988136
3353.515625	-42.477169
3354.492188	-43.159657
3355.468750	-42.158314
3356.445312	-43.187077
3357.421875	-42.938110
3358.398438	-42.457806
3359.375000	-44.073254
3360.351562	-42.916485
3361.328125	-43.429153
3362.304688	-44.624943
3363.281250	-42.729267
3364.257812	-41.325768
3365.234375	-42.602989
3366.210938	-43.380711
3367.187500	-43.572239
3368.164062	-42.064529
3369.140625	-42.440605
3370.117188	-41.883469
3371.093750	-42.932400
3372.070312	-43.072090
3373.046875	-42.999718
3374.023438	-43.294827
3375.000000	-43.322739
3375.976562	-42.622108
3376.953125	-41.628113
3377.929688	-42.402130
3378.906250	-43.562344
3379.882812	-42.853607
3380.859375	-42.640499
3381.835938	-41.794613
3382.812500	-44.471085
3383.789062	-42.101299
3384.765625	-41.744770
3385.742188	-41.590214
3386.718750	-41.928101
3387.695312	-43.602455
3388.671875	-43.174686
3389.648438	-43.287041
3390.625000	-43.291931
3391.601562	-43.988987
3392.578125	-42.462006
3393.554688	-44.175766
3394.531250	-44.415268
3395.507812	-44.353420
3396.484375	-43.214531
3397.460938	-42.973019
3398.437500	-42.740429
3399.414062	-43.443787
3400.390625	-42.785847
3401.367188	-42.451508
3402.343750	-42.829315
3403.320312	-43.088570
3404.296875	-44.084595
3405.273438	-42.855534
3406.250000	-42.836632
3407.226562	-42.481503
3408.203125	-42.226357
3409.179688	-42.943760
3410.156250	-40.959534
3411.132812	-41.103149
3412.109375	-42.509628
3413.085938	-43.582767
3414.062500	-43.924606
3415.039062	-42.799515
3416.015625	-42.265682
3416.992188	-43.008202
3417.968750	-42.861050
3418.945312	-42.098457
3419.921875	-42.008362
3420.898438	-43.038578
3421.875000	-43.107143
3422.851562	-42.840790
3423.828125	-42.730049
3424.804688	-43.053047
3425.781250	-43.078426
3426.757812	-42.283592
3427.734375	-42.403008
3428.710938	-43.678955
3429.687500	-42.908730
3430.664062	-42.884529
3431.640625	-41.802700
3432.617188	-43.330235
3433.593750	-42.249271
3434.570312	-42.408253
3435.546875	-43.731956
3436.523438	-43.579823
3437.500000	-41.271450
3438.476562	-40.730595
3439.453125	-42.949203
3440.429688	-43.339336
3441.406250	-41.881191
3442.382812	-42.277302
3443.359375	-42.919590
3444.335938	-42.997780
3445.312500	-43.909367
3446.289062	-43.482780
3447.265625	-43.806011
3448.242188	-43.327076
3449.218750	-42.388382
3450.195312	-42.403595
3451.171875	-42.680988
3452.148438	-42.591995
3453.125000	-43.527397
3454.101562	-44.661541
3455.078125	-43.432076
3456.054688	-42.603237
3457.031250	-42.563801
3458.007812	-42.880489
3458.984375	-42.933609
3459.960938	-42.901917
3460.937500	-43.339638
3461.914062	-41.616245
3462.890625	-43.416607
3463.867188	-42.831520
3464.843750	-42.465679
3465.820312	-41.916950
3466.796875	-42.786068
3467.773438	-42.692921
3468.750000	-42.281708
3469.726562	-42.044975
3470.703125	-43.006165
3471.679688	-42.686768
3472.656250	-42.658131
3473.632812	-42.355125
3474.609375	-42.051647
3475.585938	-43.824100
3476.562500	-43.324978
3477.539062	-43.577988
3478.515625	-43.004360
3479.492188	-41.983643
3480.468750	-42.189507
3481.445312	-42.728531
3482.421875	-43.245644
3483.398438	-43.413757
3484.375000	-42.763561
3485.351562	-42.651478
3486.328125	-43.982136
3487.304688	-42.567162
3488.281250	-42.358959
3489.257812	-41.606667
3490.234375	-43.661266
3491.210938	-42.284527
3492.187500	-42.867760
3493.164062	-42.572617
3494.140625	-42.580650
3495.117188	-43.365818
3496.093750	-43.495586
3497.070312	-41.752018
3498.046875	-43.296795
3499.023438	-42.641563
3500.000000	-42.519390
3500.976562	-43.078823
3501.953125	-42.059525
3502.929688	-43.127857
3503.906250	-42.586063
3504.882812	-42.079491
3505.859375	-44.066647
3506.835938	-43.044010
3507.812500	-42.708637
3508.789062	-43.609386
3509.765625	-42.886459
3510.742188	-42.046844
3511.718750	-44.051083
3512.695312	-43.815388
3513.671875	-43.347252
3514.648438	-42.571953
3515.625000	-42.702648
3516.601562	-43.050232
3517.578125	-42.181122
3518.554688	-42.972729
3519.531250	-43.299969
3520.507812	-42.923943
3521.484375	-43.534512
3522.460938	-41.591343
3523.437500	-41.507915
3524.414062	-43.745090
3525.390625	-42.324673
3526.367188	-42.642326
3527.343750	-43.161804
3528.320312	-43.111729
3529.296875	-43.572384
3530.273438	-44.447758
3531.250000	-43.444927
3532.226562	-43.230919
3533.203125	-41.921680
3534.179688	-42.082325
3535.156250	-42.869308
3536.132812	-42.057541
3537.109375	-41.916866
3538.085938	-42.084789
3539.062500	-42.805820
3540.039062	-43.692558
3541.015625	-42.702141
3541.992188	-42.835629
3542.968750	-43.145741
3543.945312	-42.518829
3544.921875	-41.803436
3545.898438	-42.727962
3546.875000	-43.808762
3547.851562	-42.941895
3548.828125	-42.884293
3549.804688	-42.636276
3550.781250	-43.143002
3551.757812	-42.131744
3552.734375	-43.179535
3553.710938	-44.188797
3554.687500	-43.409191
3555.664062	-43.256996
3556.640625	-42.574982
3557.617188	-42.830822
3558.593750	-43.155682
3559.570312	-42.859394
3560.546875	-43.315536
3561.523438	-43.453041
3562.500000	-42.181396
3563.476562	-42.087234
3564.453125	-43.158752
3565.429688	-43.180416
3566.406250	-42.199284
3567.382812	-42.014019
3568.359375	-43.555553
3569.335938	-42.781990
3570.312500	-42.907463
3571.289062	-42.701378
3572.265625	-42.068848
3573.242188	-43.266186
3574.218750	-42.418636
3575.195312	-42.471939
3576.171875	-43.707096
3577.148438	-42.814423
3578.125000	-42.152473
3579.101562	-43.592560
3580.078125	-42.241554
3581.054688	-42.187542
3582.031250	-41.882660
3583.007812	-43.105011
3583.984375	-42.592880
3584.960938	-43.471031
3585.937500	-43.308392
3586.914062	-42.399086
3587.890625	-42.851578
3588.867188	-43.426449
3589.843750	-43.118134
3590.820312	-43.009911
3591.796875	-42.899178
3592.773438	-41.629589
3593.750000	-43.781624
3594.726562	-42.444256
3595.703125	-41.942406
3596.679688	-43.093155
3597.656250	-43.100220
3598.632812	-42.307346
3599.609375	-42.483444
3600.585938	-42.640804
3601.562500	-42.565392
3602.539062	-40.750080
3603.515625	-43.336067
3604.492188	-43.441360
3605.468750	-43.853447
3606.445312	-43.676449
3607.421875	-43.058025
3608.398438	-41.199425
3609.375000	-42.000542
3610.351562	-41.169785
3611.328125	-42.470638
3612.304688	-41.880367
3613.281250	-43.356514
3614.257812	-44.223621
3615.234375	-42.475494
3616.210938	-42.701492
3617.187500	-43.368416
3618.164062	-43.686649
3619.140625	-43.828350
3620.117188	-42.178230
3621.093750	-41.538464
3622.070312	-42.153484
3623.046875	-42.519127
3624.023438	-42.996784
3625.000000	-41.502075
3625.976562	-42.925262
3626.953125	-42.329571
3627.929688	-43.474777
3628.906250	-42.959538
3629.882812	-42.800236
3630.859375	-42.343639
3631.835938	-44.008671
3632.812500	-44.020229
3633.789062	-42.402538
3634.765625	-41.493031
3635.742188	-44.103546
3636.718750	-42.890057
3637.695312	-43.463112
3638.671875	-41.765533
3639.648438	-42.322384
3640.625000	-42.019073
3641.601562	-41.753998
3642.578125	-43.052746
3643.554688	-42.681011
3644.531250	-42.099838
3645.507812	-42.668991
3646.484375	-43.307671
3647.460938	-42.573692
3648.437500	-43.148712
3649.414062	-43.389690
3650.390625	-43.190197
3651.367188	-43.450237
3652.343750	-44.440979
3653.320312	-42.049847
3654.296875	-41.706974
3655.273438	-43.014351
3656.250000	-42.797535
3657.226562	-42.567081
3658.203125	-43.487171
3659.179688	-43.907787
3660.156250	-42.999786
3661.132812	-42.655540
3662.109375	-43.284187
3663.085938	-43.712715
3664.062500	-42.860104
3665.039062	-42.741825
3666.015625	-42.808300
3666.992188	-41.853367
3667.968750	-44.241730
3668.945312	-42.952991
3669.921875	-43.272953
3670.898438	-42.966488
3671.875000	-42.129810
3672.851562	-43.641769
3673.828125	-43.566971
3674.804688	-43.166363
3675.781250	-42.968357
3676.757812	-42.660351
3677.734375	-42.294128
3678.710938	-42.708305
3679.687500	-43.222725
3680.664062	-43.115147
3681.640625	-42.960732
3682.617188	-44.209682
3683.593750	-43.120422
3684.570312	-43.513390
3685.546875	-42.493694
3686.523438	-43.158218
3687.500000	-42.780052
3688.476562	-42.724155
3689.453125	-42.566444
3690.429688	-42.535965
3691.406250	-42.541275
3692.382812	-42.315117
3693.359375	-41.725292
3694.335938	-42.790344
3695.312500	-42.756538
3696.289062	-42.860336
3697.265625	-43.102562
3698.242188	-42.245361
3699.218750	-42.350662
3700.195312	-42.182632
3701.171875	-42.977638
3702.148438	-43.384048
3703.125000	-42.287941
3704.101562	-42.273251
3705.078125	-41.903767
3706.054688	-41.877285
3707.031250	-42.899879
3708.007812	-43.386986
3708.984375	-43.883419
3709.960938	-42.583996
3710.937500	-43.438641
3711.914062	-42.197250
3712.890625	-44.258179
3713.867188	-44.549389
3714.843750	-43.319141
3715.820312	-43.891361
3716.796875	-42.569656
3717.773438	-42.794064
3718.750000	-43.552753
3719.726562	-43.990593
3720.703125	-42.180820
3721.679688	-42.551270
3722.656250	-42.332214
3723.632812	-44.093266
3724.609375	-42.218033
3725.585938	-42.020229
3726.562500	-42.035347
3727.539062	-42.175571
3728.515625	-43.725769
3729.492188	-42.381821
3730.468750	-42.237881
3731.445312	-43.309231
3732.421875	-42.088428
3733.398438	-43.020851
3734.375000	-43.008141
3735.351562	-44.006157
3736.328125	-42.571014
3737.304688	-42.972614
3738.281250	-43.844715
3739.257812	-42.505199
3740.234375	-43.964050
3741.210938	-44.231266
3742.187500	-43.931465
3743.164062	-43.530743
3744.140625	-42.995506
3745.117188	-42.911430
3746.093750	-42.633301
3747.070312	-42.259232
3748.046875	-43.104538
3749.023438	-43.250599
3750.000000	-43.652603
3750.976562	-44.647549
3751.953125	-42.173466
3752.929688	-42.727341
3753.906250	-42.866821
3754.882812	-43.144413
3755.859375	-42.797138
3756.835938	-43.077591
3757.812500	-43.778347
3758.789062	-43.581150
3759.765625	-42.388515
3760.742188	-42.905308
3761.718750	-43.678097
3762.695312	-43.774410
3763.671875	-42.375031
3764.648438	-43.565964
3765.625000	-43.421722
3766.601562	-43.108242
3767.578125	-43.603966
3768.554688	-43.258080
3769.531250	-43.684719
3770.507812	-43.649616
3771.484375	-42.161091
3772.460938	-40.976398
3773.437500	-42.779766
3774.414062	-43.645897
3775.390625	-43.261810
3776.367188	-44.808727
3777.343750	-42.892860
3778.320312	-42.146484
3779.296875	-41.640907
3780.273438	-43.293953
3781.250000	-41.896782
3782.226562	-43.393559
3783.203125	-43.077633
3784.179688	-42.147881
3785.156250	-42.423550
3786.132812	-41.620857
3787.109375	-43.259453
3788.085938	-43.294510
3789.062500	-43.764000
3790.039062	-43.225391
3791.015625	-43.063251
3791.992188	-42.399326
3792.968750	-42.479477
3793.945312	-43.374107
3794.921875	-43.582283
3795.898438	-43.458584
3796.875000	-42.616386
3797.851562	-42.730602
3798.828125	-41.526478
3799.804688	-44.088535
3800.781250	-43.453918
3801.757812	-42.508232
3802.734375	-42.257442
3803.710938	-42.227131
3804.687500	-43.269276
3805.664062	-43.382687
3806.640625	-41.779358
3807.617188	-44.146069
3808.593750	-43.613121
3809.570312	-42.600262
3810.546875	-43.582165
3811.523438	-43.414478
3812.500000	-43.001339
3813.476562	-42.614243
3814.453125	-41.903984
3815.429688	-42.357368
3816.406250	-42.196259
3817.382812	-42.488846
3818.359375	-42.757896
3819.335938	-42.954578
3820.312500	-42.756107
3821.289062	-44.118248
3822.265625	-43.522430
3823.242188	-43.099224
3824.218750	-42.814148
3825.195312	-42.629879
3826.171875	-42.376595
3827.148438	-43.007679
3828.125000	-42.977505
3829.101562	-42.142502
3830.078125	-43.309479
3831.054688	-41.756413
3832.031250	-42.856895
3833.007812	-44.099560
3833.984375	-43.069653
3834.960938	-41.472584
3835.937500	-42.290043
3836.914062	-44.060577
3837.890625	-42.843689
3838.867188	-42.160992
3839.843750	-42.177116
3840.820312	-43.749893
3841.796875	-43.207024
3842.773438	-43.479900
3843.750000	-43.204067
3844.726562	-43.435223
3845.703125	-41.422031
3846.679688	-43.094360
3847.656250	-42.311874
3848.632812	-42.503853
3849.609375	-42.509567
3850.585938	-43.011276
3851.562500	-42.051422
3852.539062	-41.966595
3853.515625	-42.420673
3854.492188	-42.192055
3855.468750	-43.409748
3856.445312	-42.532242
3857.421875	-42.155781
3858.398438	-44.166409
3859.375000	-44.043438
3860.351562	-43.032795
3861.328125	-43.971352
3862.304688	-43.272591
3863.281250	-42.458324
3864.257812	-43.339554
3865.234375	-43.297680
3866.210938	-43.127331
3867.187500	-42.384800
3868.164062	-42.686916
3869.140625	-44.326889
3870.117188	-43.961277
3871.093750	-42.533661
3872.070312	-42.668587
3873.046875	-42.812298
3874.023438	-42.449841
3875.000000	-42.435268
3875.976562	-44.074806
3876.953125	-44.403759
3877.929688	-42.726768
3878.906250	-42.728592
3879.882812	-43.720612
3880.859375	-43.446415
3881.835938	-43.047676
3882.812500	-41.915600
3883.789062	-42.662106
3884.765625	-42.909309
3885.742188	-43.077007
3886.718750	-43.152634
3887.695312	-43.395485
3888.671875	-42.211910
3889.648438	-42.789944
3890.625000	-41.806957
3891.601562	-42.085274
3892.578125	-42.799641
3893.554688	-42.906391
3894.531250	-41.758335
3895.507812	-42.591049
3896.484375	-42.203773
3897.460938	-42.753872
3898.437500	-44.230408
3899.414062	-43.439892
3900.390625	-43.640270
3901.367188	-42.700661
3902.343750	-42.482838
3903.320312	-43.377995
3904.296875	-43.149094
3905.273438	-44.384838
3906.250000	-44.310680
3907.226562	-43.191837
3908.203125	-43.213741
3909.179688	-41.908867
3910.156250	-43.831112
3911.132812	-41.818371
3912.109375	-42.400475
3913.085938	-42.552330
3914.062500	-42.708069
3915.039062	-43.003628
3916.015625	-42.299107
3916.992188	-43.452572
3917.968750	-42.057190
3918.945312	-42.418617
3919.921875	-44.021294
3920.898438	-43.609329
3921.875000	-42.565540
3922.851562	-42.775780
3923.828125	-42.951515
3924.804688	-42.974949
3925.781250	-42.161636
3926.757812	-43.003750
3927.734375	-42.535492
3928.710938	-42.942650
3929.687500	-42.670094
3930.664062	-43.149654
3931.640625	-41.449406
3932.617188	-42.179981
3933.593750	-41.340992
3934.570312	-42.932045
3935.546875	-43.169743
3936.523438	-41.984985
3937.500000	-41.539848
3938.476562	-41.827908
3939.453125	-42.585884
3940.429688	-42.824856
3941.406250	-43.128021
3942.382812	-42.463402
3943.359375	-42.705254
3944.335938	-41.643490
3945.312500	-42.217476
3946.289062	-44.656090
3947.265625	-44.172585
3948.242188	-43.750973
3949.218750	-41.286388
3950.195312	-42.571785
3951.171875	-41.682354
3952.148438	-43.651188
3953.125000	-42.838829
3954.101562	-42.641911
3955.078125	-43.695755
3956.054688	-42.149532
3957.031250	-43.770767
3958.007812	-41.833870
3958.984375	-42.781406
3959.960938	-42.688984
3960.937500	-43.717136
3961.914062	-42.503426
3962.890625	-43.004166
3963.867188	-44.782795
3964.843750	-44.158131
3965.820312	-42.621201
3966.796875	-43.131310
3967.773438	-43.396446
3968.750000	-43.347439
3969.726562	-43.277374
3970.703125	-42.778721
3971.679688	-43.366627
3972.656250	-42.756676
3973.632812	-41.453712
3974.609375	-43.235817
3975.585938	-43.338226
3976.562500	-42.867954
3977.539062	-42.773998
3978.515625	-43.300793
3979.492188	-43.941158
3980.468750	-42.059055
3981.445312	-41.570580
3982.421875	-42.601696
3983.398438	-42.954700
3984.375000	-43.531033
3985.351562	-43.803417
3986.328125	-43.130680
3987.304688	-43.233517
3988.281250	-42.184849
3989.257812	-41.783867
3990.234375	-42.654591
3991.210938	-42.525143
3992.187500	-43.479282
3993.164062	-42.829491
3994.140625	-42.713566
3995.117188	-42.636856
3996.093750	-43.272320
3997.070312	-43.028931
3998.046875	-41.658077
3999.023438	-43.758957
4000.000000	-44.197182
4000.976562	-42.730019
4001.953125	-42.938751
4002.929688	-42.309681
4003.906250	-42.663414
4004.882812	-42.627720
4005.859375	-42.788013
4006.835938	-42.256062
4007.812500	-41.895489
4008.789062	-44.103046
4009.765625	-42.181423
4010.742188	-42.351467
4011.718750	-44.335545
4012.695312	-43.418442
4013.671875	-42.348125
4014.648438	-42.870159
4015.625000	-42.991051
4016.601562	-42.310001
4017.578125	-43.293266
4018.554688	-43.410942
4019.531250	-42.215572
4020.507812	-42.961750
4021.484375	-42.972210
4022.460938	-42.366707
4023.437500	-42.602623
4024.414062	-42.344296
4025.390625	-42.474911
4026.367188	-42.531704
4027.343750	-42.597042
4028.320312	-43.787548
4029.296875	-43.422108
4030.273438	-42.042099
4031.250000	-41.493320
4032.226562	-42.899059
4033.203125	-42.102623
4034.179688	-42.967682
4035.156250	-42.216728
4036.132812	-42.349930
4037.109375	-43.971165
4038.085938	-43.186573
4039.062500	-42.154144
4040.039062	-42.396061
4041.015625	-43.017174
4041.992188	-43.319569
4042.968750	-42.585934
4043.945312	-42.699604
4044.921875	-42.707638
4045.898438	-42.288128
4046.875000	-43.075958
4047.851562	-43.624573
4048.828125	-41.464584
4049.804688	-43.015312
4050.781250	-43.196674
4051.757812	-43.070721
4052.734375	-42.979050
4053.710938	-42.852249
4054.687500	-43.068954
4055.664062	-42.854412
4056.640625	-43.401348
4057.617188	-42.742481
4058.593750	-42.750992
4059.570312	-42.706970
4060.546875	-43.283062
4061.523438	-44.392418
4062.500000	-42.642906
4063.476562	-42.758728
4064.453125	-43.048702
4065.429688	-43.123676
4066.406250	-41.539421
4067.382812	-41.853619
4068.359375	-42.978294
4069.335938	-42.421219
4070.312500	-41.927467
4071.289062	-42.019291
4072.265625	-42.207958
4073.242188	-42.852337
4074.218750	-42.420273
4075.195312	-43.474995
4076.171875	-43.148132
4077.148438	-42.484489
4078.125000	-43.785175
4079.101562	-41.869770
4080.078125	-43.312077
4081.054688	-42.357094
4082.031250	-43.406189
4083.007812	-43.392151
4083.984375	-41.948933
4084.960938	-42.227215
4085.937500	-42.897839
4086.914062	-43.992935
4087.890625	-44.200203
4088.867188	-42.629547
4089.843750	-42.455845
4090.820312	-43.089409
4091.796875	-42.863747
4092.773438	-44.502071
4093.750000	-43.140118
4094.726562	-43.183453
4095.703125	-42.557724
4096.679688	-43.290794
4097.656250	-43.201668
4098.632812	-42.357574
4099.609375	-42.614384
4100.585938	-44.037716
4101.562500	-45.010365
4102.539062	-43.829304
4103.515625	-42.439404
4104.492188	-43.676697
4105.468750	-42.229637
4106.445312	-42.657314
4107.421875	-42.016655
4108.398438	-42.736504
4109.375000	-42.886890
4110.351562	-42.885803
4111.328125	-42.571999
4112.304688	-42.772873
4113.281250	-43.971130
4114.257812	-42.562325
4115.234375	-43.637535
4116.210938	-42.913654
4117.187500	-44.105259
4118.164062	-41.574520
4119.140625	-43.200771
4120.117188	-42.321625
4121.093750	-43.759132
4122.070312	-42.416519
4123.046875	-42.650234
4124.023438	-43.886242
4125.000000	-43.075779
4125.976562	-43.120682
4126.953125	-43.440979
4127.929688	-44.030270
4128.906250	-43.773277
4129.882812	-43.739468
4130.859375	-43.429417
4131.835938	-42.231251
4132.812500	-42.283012
4133.789062	-42.683666
4134.765625	-43.555630
4135.742188	-42.773907
4136.718750	-42.624905
4137.695312	-42.501911
4138.671875	-44.083881
4139.648438	-42.734306
4140.625000	-43.235531
4141.601562	-42.976902
4142.578125	-42.226643
4143.554688	-43.285427
4144.531250	-43.633625
4145.507812	-41.856632
4146.484375	-42.028088
4147.460938	-42.551125
4148.437500	-44.316853
4149.414062	-43.516850
4150.390625	-42.688412
4151.367188	-42.909401
4152.343750	-42.724358
4153.320312	-43.328907
4154.296875	-42.093567
4155.273438	-42.035252
4156.250000	-41.661133
4157.226562	-42.626869
4158.203125	-43.531574
4159.179688	-42.751320
4160.156250	-42.606655
4161.132812	-43.045189
4162.109375	-44.131874
4163.085938	-41.921631
4164.062500	-43.239769
4165.039062	-42.967674
4166.015625	-42.050030
4166.992188	-41.578259
4167.968750	-43.212067
4168.945312	-43.606339
4169.921875	-44.089718
4170.898438	-44.140072
4171.875000	-43.784321
4172.851562	-42.208805
4173.828125	-43.000187
4174.804688	-42.624474
4175.781250	-41.970440
4176.757812	-42.571007
4177.734375	-43.065014
4178.710938	-43.920418
4179.687500	-43.361256
4180.664062	-43.461769
4181.640625	-42.399918
4182.617188	-43.188477
4183.593750	-42.481453
4184.570312	-42.623528
4185.546875	-43.846176
4186.523438	-44.315834
4187.500000	-43.301662
4188.476562	-42.671604
4189.453125	-44.344479
4190.429688	-43.543159
4191.406250	-42.148102
4192.382812	-41.528545
4193.359375	-41.636120
4194.335938	-42.297047
4195.312500	-42.998695
4196.289062	-44.428101
4197.265625	-42.978584
4198.242188	-43.307438
4199.218750	-42.715206
4200.195312	-41.997997
4201.171875	-43.928005
4202.148438	-43.097809
4203.125000	-42.314167
4204.101562	-42.540459
4205.078125	-42.043320
4206.054688	-42.884686
4207.031250	-43.178173
4208.007812	-41.935486
4208.984375	-42.761963
4209.960938	-42.513985
4210.937500	-44.058193
4211.914062	-43.354679
4212.890625	-42.587334
4213.867188	-43.532673
4214.843750	-44.153847
4215.820312	-42.484222
4216.796875	-42.047905
4217.773438	-42.685764
4218.750000	-42.788502
4219.726562	-42.803394
4220.703125	-44.545326
4221.679688	-42.309654
4222.656250	-43.345364
4223.632812	-42.883446
4224.609375	-42.823391
4225.585938	-42.938992
4226.562500	-42.263889
4227.539062	-42.923420
4228.515625	-41.381897
4229.492188	-42.577389
4230.468750	-43.662762
4231.445312	-43.434780
4232.421875	-43.410587
4233.398438	-41.811398
4234.375000	-42.031979
4235.351562	-42.974796
4236.328125	-42.523483
4237.304688	-42.849773
4238.281250	-43.540466
4239.257812	-43.642040
4240.234375	-42.328674
4241.210938	-43.602356
4242.187500	-42.171898
4243.164062	-42.458321
4244.140625	-42.069851
4245.117188	-41.605858
4246.093750	-42.977871
4247.070312	-43.558197
4248.046875	-43.247696
4249.023438	-42.766991
4250.000000	-42.640289
4250.976562	-41.746750
4251.953125	-42.711849
4252.929688	-42.984634
4253.906250	-43.096672
4254.882812	-42.371887
4255.859375	-42.553463
4256.835938	-43.178764
4257.812500	-43.280334
4258.789062	-42.145187
4259.765625	-42.147572
4260.742188	-42.000622
4261.718750	-41.970394
4262.695312	-42.037399
4263.671875	-43.089420
4264.648438	-42.663677
4265.625000	-42.767090
4266.601562	-42.861149
4267.578125	-43.306190
4268.554688	-44.648617
4269.531250	-42.340118
4270.507812	-42.534332
4271.484375	-43.117962
4272.460938	-42.531231
4273.437500	-42.869637
4274.414062	-42.515408
4275.390625	-43.670403
4276.367188	-42.470249
4277.343750	-43.023911
4278.320312	-42.823399
4279.296875	-42.788544
4280.273438	-43.156590
4281.250000	-42.659790
4282.226562	-43.755676
4283.203125	-43.245941
4284.179688	-43.529449
4285.156250	-43.456814
4286.132812	-43.178940
4287.109375	-43.210369
4288.085938	-42.449272
4289.062500	-41.817661
4290.039062	-42.957325
4291.015625	-44.363091
4291.992188	-42.668846
4292.968750	-42.859142
4293.945312	-42.604012
4294.921875	-41.291973
4295.898438	-42.302715
4296.875000	-42.605053
4297.851562	-42.394978
4298.828125	-43.051205
4299.804688	-44.166615
4300.781250	-43.062962
4301.757812	-40.208843
4302.734375	-41.969856
4303.710938	-43.235722
4304.687500	-42.204514
4305.664062	-42.893425
4306.640625	-43.021572
4307.617188	-43.627499
4308.593750	-44.258263
4309.570312	-43.336578
4310.546875	-43.078461
4311.523438	-42.945770
4312.500000	-43.460636
4313.476562	-43.328190
4314.453125	-43.342018
4315.429688	-42.002853
4316.406250	-42.438499
4317.382812	-41.795685
4318.359375	-42.586666
4319.335938	-42.762943
4320.312500	-42.173820
4321.289062	-42.356415
4322.265625	-44.302101
4323.242188	-42.838230
4324.218750	-43.442440
4325.195312	-42.377911
4326.171875	-42.139957
4327.148438	-41.681053
4328.125000	-43.187771
4329.101562	-42.359215
4330.078125	-42.753826
4331.054688	-43.316330
4332.031250	-41.581299
4333.007812	-42.665424
4333.984375	-42.680405
4334.960938	-43.374962
4335.937500	-42.433975
4336.914062	-41.855713
4337.890625	-42.204102
4338.867188	-44.059002
4339.843750	-42.948887
4340.820312	-43.220379
4341.796875	-43.656075
4342.773438	-42.508068
4343.750000	-42.450932
4344.726562	-43.191036
4345.703125	-44.877510
4346.679688	-43.856876
4347.656250	-42.625618
4348.632812	-41.151543
4349.609375	-42.531086
4350.585938	-42.711960
4351.562500	-43.029400
4352.539062	-43.481426
4353.515625	-43.047485
4354.492188	-43.418034
4355.468750	-42.508446
4356.445312	-43.090828
4357.421875	-44.099812
4358.398438	-43.575176
4359.375000	-42.912933
4360.351562	-42.094196
4361.328125	-43.308880
4362.304688	-42.751091
4363.281250	-43.183395
4364.257812	-42.457886
4365.234375	-41.597099
4366.210938	-43.090855
4367.187500	-43.138962
4368.164062	-43.055145
4369.140625	-42.746796
4370.117188	-42.532410
4371.093750	-42.830826
4372.070312	-43.165298
4373.046875	-42.444016
4374.023438	-43.536396
4375.000000	-43.276436
4375.976562	-41.622940
4376.953125	-42.392246
4377.929688	-42.344585
4378.906250	-42.720184
4379.882812	-43.226559
4380.859375	-43.300983
4381.835938	-43.271549
4382.812500	-41.929657
4383.789062	-42.442795
4384.765625	-43.238468
4385.742188	-43.674938
4386.718750	-43.328312
4387.695312	-42.272362
4388.671875	-42.897789
4389.648438	-41.725075
4390.625000	-42.943420
4391.601562	-42.974583
4392.578125	-42.712860
4393.554688	-42.429047
4394.531250	-42.561546
4395.507812	-41.646938
4396.484375	-43.453152
4397.460938	-42.437992
4398.437500	-43.220551
4399.414062	-42.004711
4400.390625	-42.664085
4401.367188	-43.586399
4402.343750	-43.263573
4403.320312	-43.472980
4404.296875	-43.489895
4405.273438	-43.947357
4406.250000	-41.723713
4407.226562	-42.901924
4408.203125	-42.099400
4409.179688	-41.671284
4410.156250	-42.458275
4411.132812	-42.779774
4412.109375	-44.681023
4413.085938	-42.789364
4414.062500	-43.647129
4415.039062	-43.892822
4416.015625	-42.303223
4416.992188	-42.685955
4417.968750	-41.983372
4418.945312	-42.007599
4419.921875	-41.185753
4420.898438	-42.865005
4421.875000	-42.398628
4422.851562	-43.772984
4423.828125	-42.769207
4424.804688	-41.940376
4425.781250	-43.604393
4426.757812	-43.097027
4427.734375	-41.270397
4428.710938	-43.449814
4429.687500	-42.808804
4430.664062	-43.244820
4431.640625	-43.340992
4432.617188	-42.987873
4433.593750	-43.615562
4434.570312	-41.508884
4435.546875	-41.634853
4436.523438	-42.379120
4437.500000	-42.926159
4438.476562	-43.205265
4439.453125	-43.584316
4440.429688	-43.248581
4441.406250	-43.113945
4442.382812	-42.536327
4443.359375	-44.928486
4444.335938	-42.999249
4445.312500	-41.884655
4446.289062	-42.400780
4447.265625	-43.301113
4448.242188	-43.529881
4449.218750	-42.013187
4450.195312	-42.950317
4451.171875	-43.273087
4452.148438	-43.715919
4453.125000	-41.756401
4454.101562	-44.544518
4455.078125	-42.692787
4456.054688	-43.967838
4457.031250	-43.869808
4458.007812	-42.895214
4458.984375	-41.597385
4459.960938	-42.607288
4460.937500	-43.611801
4461.914062	-43.447815
4462.890625	-43.765133
4463.867188	-42.754593
4464.843750	-41.851406
4465.820312	-42.784157
4466.796875	-41.663506
4467.773438	-43.665379
4468.750000	-42.114014
4469.726562	-42.265667
4470.703125	-43.935577
4471.679688	-42.684078
4472.656250	-44.184189
4473.632812	-42.790512
4474.609375	-43.541306
4475.585938	-44.035610
4476.562500	-42.888973
4477.539062	-43.942146
4478.515625	-42.651783
4479.492188	-43.488873
4480.468750	-43.517204
4481.445312	-44.886864
4482.421875	-42.276215
4483.398438	-43.505047
4484.375000	-43.454136
4485.351562	-42.541027
4486.328125	-42.172981
4487.304688	-44.660854
4488.281250	-43.057201
4489.257812	-41.589684
4490.234375	-43.922409
4491.210938	-41.529308
4492.187500	-43.611134
4493.164062	-42.595577
4494.140625	-43.916573
4495.117188	-42.300007
4496.093750	-44.689556
4497.070312	-41.400288
4498.046875	-42.547703
4499.023438	-42.813816
4500.000000	-43.138939
4500.976562	-43.531754
4501.953125	-43.742443
4502.929688	-41.693981
4503.906250	-42.819874
4504.882812	-43.058598
4505.859375	-44.050465
4506.835938	-42.820591
4507.812500	-42.519764
4508.789062	-43.226868
4509.765625	-42.388889
4510.742188	-41.426010
4511.718750	-42.644745
4512.695312	-42.785572
4513.671875	-42.676479
4514.648438	-42.706657
4515.625000	-42.804287
4516.601562	-44.715168
4517.578125	-43.097904
4518.554688	-43.849789
4519.531250	-43.532417
4520.507812	-43.777603
4521.484375	-43.626034
4522.460938	-43.119328
4523.437500	-42.966766
4524.414062	-44.256695
4525.390625	-43.527756
4526.367188	-42.463478
4527.343750	-42.789928
4528.320312	-43.146534
4529.296875	-42.631393
4530.273438	-43.087906
4531.250000	-42.603283
4532.226562	-43.524677
4533.203125	-42.173733
4534.179688	-42.204552
4535.156250	-42.464321
4536.132812	-41.650677
4537.109375	-44.282726
4538.085938	-43.274685
4539.062500	-41.902615
4540.039062	-42.165150
4541.015625	-43.380714
4541.992188	-42.467216
4542.968750	-42.108101
4543.945312	-42.036201
4544.921875	-44.769554
4545.898438	-42.793835
4546.875000	-42.634865
4547.851562	-42.626240
4548.828125	-43.106495
4549.804688	-44.047207
4550.781250	-42.752151
4551.757812	-43.165001
4552.734375	-42.285049
4553.710938	-42.574780
4554.687500	-42.985947
4555.664062	-42.263683
4556.640625	-42.118839
4557.617188	-44.165913
4558.593750	-41.936558
4559.570312	-43.095356
4560.546875	-42.445450
4561.523438	-42.015114
4562.500000	-42.321529
4563.476562	-43.066990
4564.453125	-43.004753
4565.429688	-43.510113
4566.406250	-43.799015
4567.382812	-42.007545
4568.359375	-43.090080
4569.335938	-42.673676
4570.312500	-41.682339
4571.289062	-42.659275
4572.265625	-42.728912
4573.242188	-43.222713
4574.218750	-43.827705
4575.195312	-43.152779
4576.171875	-42.651184
4577.148438	-43.608444
4578.125000	-44.204853
4579.101562	-43.000172
4580.078125	-43.139812
4581.054688	-43.820534
4582.031250	-43.194992
4583.007812	-43.199539
4583.984375	-43.102467
4584.960938	-42.767731
4585.937500	-41.886532
4586.914062	-43.353863
4587.890625	-42.864613
4588.867188	-44.046913
4589.843750	-43.411442
4590.820312	-44.792797
4591.796875	-41.669357
4592.773438	-42.159740
4593.750000	-43.195030
4594.726562	-42.725277
4595.703125	-42.389595
4596.679688	-41.888096
4597.656250	-43.088135
4598.632812	-42.064262
4599.609375	-42.653408
4600.585938	-43.348370
4601.562500	-42.047253
4602.539062	-43.630592
4603.515625	-43.034508
4604.492188	-43.586323
4605.468750	-42.902317
4606.445312	-42.320152
4607.421875	-44.235729
4608.398438	-42.723858
4609.375000	-42.277351
4610.351562	-42.555107
4611.328125	-43.759510
4612.304688	-43.371811
4613.281250	-42.879177
4614.257812	-42.649288
4615.234375	-42.146149
4616.210938	-43.206650
4617.187500	-43.448719
4618.164062	-42.811268
4619.140625	-43.273727
4620.117188	-41.811684
4621.093750	-42.054039
4622.070312	-42.786663
4623.046875	-42.610294
4624.023438	-42.542439
4625.000000	-42.985703
4625.976562	-43.452099
4626.953125	-42.413715
4627.929688	-43.147316
4628.906250	-41.922657
4629.882812	-42.755337
4630.859375	-44.311596
4631.835938	-44.021252
4632.812500	-42.876156
4633.789062	-43.679150
4634.765625	-42.354057
4635.742188	-43.102200
4636.718750	-43.039532
4637.695312	-43.264248
4638.671875	-42.888081
4639.648438	-42.540894
4640.625000	-42.629555
4641.601562	-43.177261
4642.578125	-42.789059
4643.554688	-41.979004
4644.531250	-41.880081
4645.507812	-42.236706
4646.484375	-43.001331
4647.460938	-42.825226
4648.437500	-42.525768
4649.414062	-42.603313
4650.390625	-42.411720
4651.367188	-42.312359
4652.343750	-42.134106
4653.320312	-41.763756
4654.296875	-42.216389
4655.273438	-43.788479
4656.250000	-43.027573
4657.226562	-42.683998
4658.203125	-42.869518
4659.179688	-42.247131
4660.156250	-43.852833
4661.132812	-43.445774
4662.109375	-43.529842
4663.085938	-43.057789
4664.062500	-44.030087
4665.039062	-43.054607
4666.015625	-42.604023
4666.992188	-42.440762
4667.968750	-42.353905
4668.945312	-44.090652
4669.921875	-43.933548
4670.898438	-43.939110
4671.875000	-43.480789
4672.851562	-44.315403
4673.828125	-41.957829
4674.804688	-42.913231
4675.781250	-42.378998
4676.757812	-42.711746
4677.734375	-42.596844
4678.710938	-42.774178
4679.687500	-42.433807
4680.664062	-43.031288
4681.640625	-43.151997
4682.617188	-43.230354
4683.593750	-44.319336
4684.570312	-42.269333
4685.546875	-42.453644
4686.523438	-42.699448
4687.500000	-42.748535
4688.476562	-42.128780
4689.453125	-42.472878
4690.429688	-43.242943
4691.406250	-42.476254
4692.382812	-43.176498
4693.359375	-42.226772
4694.335938	-43.095474
4695.312500	-43.056034
4696.289062	-44.446541
4697.265625	-42.925507
4698.242188	-42.030598
4699.218750	-42.905476
4700.195312	-42.888409
4701.171875	-43.053329
4702.148438	-44.166409
4703.125000	-44.202797
4704.101562	-41.418839
4705.078125	-42.489502
4706.054688	-41.770397
4707.031250	-42.006721
4708.007812	-43.358585
4708.984375	-42.385040
4709.960938	-42.463810
4710.937500	-43.786613
4711.914062	-43.388287
4712.890625	-43.363274
4713.867188	-43.013298
4714.843750	-42.251240
4715.820312	-42.156109
4716.796875	-41.971207
4717.773438	-41.961876
4718.750000	-43.056587
4719.726562	-44.361122
4720.703125	-44.653755
4721.679688	-43.073196
4722.656250	-44.648289
4723.632812	-42.910172
4724.609375	-42.948895
4725.585938	-42.523369
4726.562500	-43.188442
4727.539062	-43.229851
4728.515625	-42.525711
4729.492188	-43.375282
4730.468750	-44.548225
4731.445312	-43.491707
4732.421875	-42.908173
4733.398438	-41.680859
4734.375000	-41.926708
4735.351562	-43.428913
4736.328125	-42.813675
4737.304688	-43.350330
4738.281250	-41.987556
4739.257812	-41.999222
4740.234375	-43.268932
4741.210938	-43.006840
4742.187500	-42.438862
4743.164062	-43.168957
4744.140625	-43.049072
4745.117188	-44.487755
4746.093750	-42.351772
4747.070312	-42.639385
4748.046875	-41.921898
4749.023438	-41.610638
4750.000000	-41.285992
4750.976562	-43.399242
4751.953125	-42.928230
4752.929688	-42.473705
4753.906250	-42.772633
4754.882812	-43.440910
4755.859375	-43.904984
4756.835938	-42.865917
4757.812500	-43.575924
4758.789062	-43.784370
4759.765625	-43.886719
4760.742188	-43.376831
4761.718750	-44.127930
4762.695312	-42.819321
4763.671875	-43.376247
4764.648438	-43.463821
4765.625000	-42.767601
4766.601562	-41.930759
4767.578125	-42.294048
4768.554688	-42.981529
4769.531250	-42.085686
4770.507812	-42.801342
4771.484375	-43.023895
4772.460938	-43.443665
4773.437500	-42.757355
4774.414062	-43.107330
4775.390625	-43.547913
4776.367188	-41.732872
4777.343750	-42.294140
4778.320312	-42.840446
4779.296875	-40.467152
4780.273438	-42.540794
4781.250000	-43.887276
4782.226562	-43.106514
4783.203125	-43.609509
4784.179688	-44.520855
4785.156250	-43.261051
4786.132812	-42.913620
4787.109375	-42.075500
4788.085938	-43.094234
4789.062500	-43.027634
4790.039062	-43.920841
4791.015625	-43.359104
4791.992188	-43.917301
4792.968750	-43.404152
4793.945312	-42.232559
4794.921875	-42.600349
4795.898438	-41.953644
4796.875000	-42.631100
4797.851562	-42.200428
4798.828125	-41.161491
4799.804688	-43.521744
4800.781250	-42.960648
4801.757812	-42.961750
4802.734375	-42.697952
4803.710938	-43.103058
4804.687500	-43.172218
4805.664062	-43.239918
4806.640625	-42.488274
4807.617188	-41.532288
4808.593750	-42.313602
4809.570312	-42.587917
4810.546875	-42.456524
4811.523438	-42.708931
4812.500000	-43.241062
4813.476562	-42.682125
4814.453125	-43.163166
4815.429688	-42.444454
4816.406250	-44.701904
4817.382812	-43.114037
4818.359375	-43.678741
4819.335938	-42.462906
4820.312500	-42.538853
4821.289062	-42.015617
4822.265625	-42.393909
4823.242188	-43.745132
4824.218750	-42.601868
4825.195312	-43.533321
4826.171875	-42.727966
4827.148438	-42.276821
4828.125000	-43.555515
4829.101562	-42.774837
4830.078125	-42.242874
4831.054688	-43.440628
4832.031250	-43.010151
4833.007812	-42.551796
4833.984375	-41.868366
4834.960938	-42.699287
4835.937500	-42.868526
4836.914062	-41.933857
4837.890625	-42.666847
4838.867188	-42.947647
4839.843750	-42.321617
4840.820312	-42.814655
4841.796875	-42.285870
4842.773438	-43.319496
4843.750000	-43.919205
4844.726562	-43.192524
4845.703125	-43.463718
4846.679688	-44.836994
4847.656250	-42.512638
4848.632812	-42.358311
4849.609375	-41.304607
4850.585938	-42.347862
4851.562500	-42.732010
4852.539062	-42.160465
4853.515625	-42.900623
4854.492188	-42.130604
4855.468750	-42.225712
4856.445312	-41.895000
4857.421875	-42.694366
4858.398438	-41.803043
4859.375000	-40.829620
4860.351562	-43.265705
4861.328125	-41.792850
4862.304688	-43.479282
4863.281250	-44.262955
4864.257812	-43.200077
4865.234375	-42.576839
4866.210938	-43.841480
4867.187500	-42.761303
4868.164062	-42.776974
4869.140625	-42.573067
4870.117188	-43.081017
4871.093750	-41.723217
4872.070312	-43.154465
4873.046875	-43.282097
4874.023438	-42.939762
4875.000000	-43.457825
4875.976562	-42.991028
4876.953125	-42.407608
4877.929688	-42.057575
4878.906250	-41.680199
4879.882812	-43.320889
4880.859375	-42.492275
4881.835938	-42.235302
4882.812500	-43.601833
4883.789062	-43.169506
4884.765625	-42.826942
4885.742188	-43.828266
4886.718750	-42.349445
4887.695312	-42.036423
4888.671875	-42.677956
4889.648438	-42.501728
4890.625000	-42.921234
4891.601562	-42.706596
4892.578125	-41.245098
4893.554688	-43.335300
4894.531250	-44.321461
4895.507812	-42.835144
4896.484375	-43.346664
4897.460938	-43.037895
4898.437500	-43.051647
4899.414062	-42.193306
4900.390625	-43.893055
4901.367188	-43.718025
4902.343750	-41.918537
4903.320312	-41.571983
4904.296875	-42.243958
4905.273438	-42.409058
4906.250000	-43.058769
4907.226562	-42.636539
4908.203125	-43.033688
4909.179688	-42.715759
4910.156250	-42.981350
4911.132812	-43.064140
4912.109375	-42.692066
4913.085938	-42.309227
4914.062500	-42.287285
4915.039062	-43.378704
4916.015625	-43.263107
4916.992188	-42.375412
4917.968750	-42.839149
4918.945312	-43.019535
4919.921875	-41.795574
4920.898438	-43.523426
4921.875000	-43.844986
4922.851562	-42.777454
4923.828125	-42.643410
4924.804688	-42.912399
4925.781250	-43.160919
4926.757812	-43.394192
4927.734375	-41.831474
4928.710938	-43.391407
4929.687500	-42.494389
4930.664062	-42.777527
4931.640625	-43.195415
4932.617188	-43.309048
4933.593750	-41.738285
4934.570312	-43.006626
4935.546875	-43.521309
4936.523438	-43.754417
4937.500000	-43.037514
4938.476562	-43.750896
4939.453125	-42.119522
4940.429688	-42.176086
4941.406250	-43.476944
4942.382812	-42.446575
4943.359375	-42.383606
4944.335938	-42.911499
4945.312500	-43.449524
4946.289062	-42.070801
4947.265625	-42.819099
4948.242188	-42.283199
4949.218750	-42.982414
4950.195312	-42.559811
4951.171875	-42.651859
4952.148438	-42.456596
4953.125000	-41.908409
4954.101562	-42.775181
4955.078125	-42.736614
4956.054688	-42.817993
4957.031250	-41.535801
4958.007812	-41.729774
4958.984375	-42.751930
4959.960938	-43.636898
4960.937500	-43.042725
4961.914062	-43.891010
4962.890625	-42.500801
4963.867188	-42.449108
4964.843750	-41.975906
4965.820312	-43.620159
4966.796875	-43.112297
4967.773438	-42.375626
4968.750000	-42.949028
4969.726562	-43.277946
4970.703125	-42.133297
4971.679688	-45.072422
4972.656250	-41.875660
4973.632812	-42.970341
4974.609375	-43.704933
4975.585938	-42.835506
4976.562500	-43.266964
4977.539062	-42.614998
4978.515625	-43.606129
4979.492188	-42.906532
4980.468750	-42.738674
4981.445312	-43.053890
4982.421875	-43.228848
4983.398438	-43.482750
4984.375000	-43.000080
4985.351562	-42.491241
4986.328125	-42.330288
4987.304688	-42.471561
4988.281250	-41.657932
4989.257812	-42.100403
4990.234375	-41.937237
4991.210938	-41.562431
4992.187500	-42.393063
4993.164062	-43.757751
4994.140625	-43.930099
4995.117188	-43.442867
4996.093750	-43.461094
4997.070312	-43.154652
4998.046875	-41.349945
4999.023438	-43.572914
5000.000000	-42.202946
5000.976562	-42.501419
5001.953125	-42.152592
5002.929688	-42.415501
5003.906250	-43.740242
5004.882812	-42.985443
5005.859375	-44.010818
5006.835938	-42.738873
5007.812500	-42.918823
5008.789062	-42.817097
5009.765625	-43.351059
5010.742188	-42.306271
5011.718750	-42.870876
5012.695312	-43.184898
5013.671875	-43.158440
5014.648438	-43.695759
5015.625000	-42.612621
5016.601562	-42.326626
5017.578125	-43.425926
5018.554688	-43.747574
5019.531250	-42.565327
5020.507812	-42.036499
5021.484375	-44.358955
5022.460938	-44.022060
5023.437500	-43.607761
5024.414062	-42.302773
5025.390625	-43.330013
5026.367188	-44.398293
5027.343750	-44.333710
5028.320312	-42.241936
5029.296875	-43.406174
5030.273438	-43.280998
5031.250000	-43.731621
5032.226562	-43.276413
5033.203125	-42.503269
5034.179688	-41.598179
5035.156250	-41.853889
5036.132812	-44.108231
5037.109375	-42.231583
5038.085938	-43.274452
5039.062500	-42.192081
5040.039062	-42.855377
5041.015625	-42.357307
5041.992188	-43.137325
5042.968750	-42.070267
5043.945312	-43.091610
5044.921875	-42.434319
5045.898438	-42.464085
5046.875000	-42.398438
5047.851562	-42.916721
5048.828125	-42.940128
5049.804688	-43.069603
5050.781250	-42.013359
5051.757812	-42.205688
5052.734375	-42.583202
5053.710938	-42.027229
5054.687500	-43.044163
5055.664062	-42.646416
5056.640625	-42.319904
5057.617188	-43.707340
5058.593750	-42.610886
5059.570312	-43.658146
5060.546875	-42.588634
5061.523438	-42.536003
5062.500000	-43.952808
5063.476562	-42.759666
5064.453125	-43.868111
5065.429688	-43.586517
5066.406250	-42.448601
5067.382812	-43.098221
5068.359375	-43.113590
5069.335938	-43.122189
5070.312500	-42.210979
5071.289062	-42.534046
5072.265625	-43.251278
5073.242188	-43.673824
5074.218750	-42.201290
5075.195312	-43.266216
5076.171875	-42.702312
5077.148438	-43.687428
5078.125000	-42.664936
5079.101562	-43.282974
5080.078125	-41.543018
5081.054688	-43.420578
5082.031250	-42.557083
5083.007812	-44.158413
5083.984375	-42.411053
5084.960938	-42.459656
5085.937500	-43.176754
5086.914062	-42.621330
5087.890625	-42.961212
5088.867188	-42.381985
5089.843750	-43.004742
5090.820312	-42.650387
5091.796875	-42.197338
5092.773438	-42.912571
5093.750000	-43.280224
5094.726562	-43.019299
5095.703125	-43.562325
5096.679688	-43.644756
5097.656250	-44.184666
5098.632812	-43.389557
5099.609375	-42.523552
5100.585938	-44.109962
5101.562500	-43.489822
5102.539062	-43.225628
5103.515625	-41.976524
5104.492188	-42.201004
5105.468750	-42.702366
5106.445312	-43.179192
5107.421875	-44.058182
5108.398438	-42.889004
5109.375000	-42.154209
5110.351562	-42.833435
5111.328125	-42.380806
5112.304688	-42.211514
5113.281250	-42.212917
5114.257812	-42.893574
5115.234375	-43.259960
5116.210938	-43.530117
5117.187500	-42.658283
5118.164062	-43.039799
5119.140625	-44.447891
5120.117188	-43.441734
5121.093750	-43.090034
5122.070312	-43.239594
5123.046875	-43.011765
5124.023438	-43.871532
5125.000000	-41.967731
5125.976562	-43.137135
5126.953125	-44.476665
5127.929688	-43.016071
5128.906250	-43.220604
5129.882812	-43.207096
5130.859375	-43.334133
5131.835938	-43.961189
5132.812500	-43.917667
5133.789062	-42.169258
5134.765625	-43.491787
5135.742188	-43.517838
5136.718750	-42.659054
5137.695312	-43.210491
5138.671875	-42.196339
5139.648438	-43.536156
5140.625000	-42.824463
5141.601562	-42.597820
5142.578125	-43.241627
5143.554688	-44.506111
5144.531250	-43.761471
5145.507812	-42.314159
5146.484375	-42.789154
5147.460938	-42.034622
5148.437500	-42.601578
5149.414062	-43.794476
5150.390625	-43.842503
5151.367188	-43.016602
5152.343750	-43.614758
5153.320312	-43.589691
5154.296875	-42.061672
5155.273438	-42.305241
5156.250000	-42.084030
5157.226562	-43.688072
5158.203125	-44.194572
5159.179688	-43.245544
5160.156250	-42.887421
5161.132812	-43.171257
5162.109375	-42.819607
5163.085938	-41.861115
5164.062500	-41.314732
5165.039062	-42.374119
5166.015625	-43.179859
5166.992188	-41.241791
5167.968750	-42.045742
5168.945312	-42.664097
5169.921875	-42.922623
5170.898438	-43.297932
5171.875000	-42.192993
5172.851562	-41.802528
5173.828125	-43.250656
5174.804688	-42.710468
5175.781250	-44.154564
5176.757812	-45.153294
5177.734375	-43.189297
5178.710938	-42.064373
5179.687500	-43.712944
5180.664062	-42.267166
5181.640625	-42.819530
5182.617188	-43.843094
5183.593750	-43.267406
5184.570312	-43.082512
5185.546875	-42.782772
5186.523438	-42.268703
5187.500000	-41.892384
5188.476562	-43.636253
5189.453125	-42.327187
5190.429688	-43.625141
5191.406250	-42.156425
5192.382812	-41.765556
5193.359375	-43.236591
5194.335938	-43.803947
5195.312500	-42.552395
5196.289062	-42.325405
5197.265625	-43.166527
5198.242188	-43.112347
5199.218750	-41.762444
5200.195312	-41.601223
5201.171875	-42.771648
5202.148438	-43.054962
5203.125000	-43.574078
5204.101562	-42.984638
5205.078125	-42.367523
5206.054688	-42.920822
5207.031250	-42.707558
5208.007812	-42.699291
5208.984375	-42.061611
5209.960938	-43.397579
5210.937500	-42.474628
5211.914062	-43.548264
5212.890625	-43.885765
5213.867188	-42.257515
5214.843750	-43.284473
5215.820312	-43.181946
5216.796875	-43.012154
5217.773438	-43.858448
5218.750000	-42.785069
5219.726562	-43.031036
5220.703125	-42.526569
5221.679688	-41.789196
5222.656250	-42.865215
5223.632812	-42.943729
5224.609375	-41.218746
5225.585938	-43.054474
5226.562500	-43.727757
5227.539062	-41.477715
5228.515625	-41.852440
5229.492188	-43.852272
5230.468750	-44.027119
5231.445312	-42.919701
5232.421875	-42.946491
5233.398438	-42.770061
5234.375000	-43.633335
5235.351562	-41.834991
5236.328125	-40.593258
5237.304688	-42.098316
5238.281250	-43.969814
5239.257812	-43.129803
5240.234375	-42.065712
5241.210938	-43.364170
5242.187500	-41.978577
5243.164062	-43.351597
5244.140625	-43.584557
5245.117188	-43.557228
5246.093750	-42.690582
5247.070312	-43.010910
5248.046875	-42.682472
5249.023438	-43.847839
5250.000000	-42.879745
5250.976562	-43.298054
5251.953125	-44.246464
5252.929688	-42.571598
5253.906250	-43.885910
5254.882812	-43.179230
5255.859375	-42.079090
5256.835938	-42.518005
5257.812500	-43.042557
5258.789062	-42.480492
5259.765625	-42.226269
5260.742188	-42.294456
5261.718750	-42.744011
5262.695312	-43.169735
5263.671875	-42.997410
5264.648438	-44.213680
5265.625000	-44.450558
5266.601562	-41.564957
5267.578125	-40.984673
5268.554688	-43.843678
5269.531250	-43.118668
5270.507812	-41.922840
5271.484375	-43.066475
5272.460938	-42.082840
5273.437500	-44.327255
5274.414062	-43.300888
5275.390625	-41.866840
5276.367188	-43.036491
5277.343750	-43.692135
5278.320312	-43.039757
5279.296875	-42.921505
5280.273438	-43.312096
5281.250000	-42.569359
5282.226562	-42.909363
5283.203125	-43.237671
5284.179688	-42.525490
5285.156250	-42.126972
5286.132812	-42.594471
5287.109375	-43.425617
5288.085938	-42.468975
5289.062500	-42.669357
5290.039062	-42.127083
5291.015625	-42.222004
5291.992188	-42.097244
5292.968750	-42.311420
5293.945312	-42.514076
5294.921875	-43.002766
5295.898438	-42.559498
5296.875000	-42.671444
5297.851562	-42.225475
5298.828125	-42.748554
5299.804688	-42.989887
5300.781250	-43.487690
5301.757812	-42.852184
5302.734375	-41.429710
5303.710938	-43.243507
5304.687500	-42.769703
5305.664062	-42.830059
5306.640625	-43.079102
5307.617188	-42.010281
5308.593750	-43.183628
5309.570312	-41.700481
5310.546875	-41.628983
5311.523438	-42.919529
5312.500000	-44.295841
5313.476562	-42.954788
5314.453125	-43.036526
5315.429688	-43.366348
5316.406250	-43.290958
5317.382812	-42.735630
5318.359375	-43.087681
5319.335938	-42.519341
5320.312500	-43.296597
5321.289062	-41.500683
5322.265625	-42.789776
5323.242188	-43.958145
5324.218750	-42.961266
5325.195312	-42.309334
5326.171875	-41.468964
5327.148438	-42.765060
5328.125000	-43.036934
5329.101562	-42.018024
5330.078125	-43.345463
5331.054688	-43.499573
5332.031250	-42.689621
5333.007812	-43.640106
5333.984375	-43.714188
5334.960938	-42.601849
5335.937500	-43.100597
5336.914062	-41.897835
5337.890625	-42.943420
5338.867188	-42.863590
5339.843750	-43.625397
5340.820312	-42.930557
5341.796875	-43.232372
5342.773438	-43.655022
5343.750000	-43.108768
5344.726562	-43.640011
5345.703125	-43.107655
5346.679688	-43.667721
5347.656250	-44.247017
5348.632812	-43.094891
5349.609375	-43.532444
5350.585938	-41.544132
5351.562500	-42.919552
5352.539062	-43.449051
5353.515625	-42.309547
5354.492188	-42.436726
5355.468750	-43.055500
5356.445312	-42.441982
5357.421875	-44.381123
5358.398438	-42.397011
5359.375000	-42.298370
5360.351562	-42.437901
5361.328125	-42.380013
5362.304688	-43.366093
5363.281250	-42.064060
5364.257812	-42.616291
5365.234375	-43.153358
5366.210938	-43.377899
5367.187500	-42.537033
5368.164062	-43.009441
5369.140625	-42.732670
5370.117188	-42.312481
5371.093750	-42.201607
5372.070312	-43.421196
5373.046875	-43.705471
5374.023438	-43.866673
5375.000000	-43.173553
5375.976562	-42.268051
5376.953125	-42.817642
5377.929688	-42.744850
5378.906250	-42.898838
5379.882812	-42.827469
5380.859375	-41.217831
5381.835938	-42.951862
5382.812500	-42.689827
5383.789062	-42.871952
5384.765625	-42.981426
5385.742188	-42.924404
5386.718750	-43.511147
5387.695312	-43.638607
5388.671875	-42.766479
5389.648438	-42.684792
5390.625000	-43.979851
5391.601562	-42.308929
5392.578125	-43.061138
5393.554688	-44.371632
5394.531250	-42.911388
5395.507812	-42.658878
5396.484375	-42.795975
5397.460938	-44.063129
5398.437500	-43.218971
5399.414062	-42.361305
5400.390625	-42.274559
5401.367188	-42.989075
5402.343750	-42.854973
5403.320312	-43.817394
5404.296875	-43.028278
5405.273438	-43.177853
5406.250000	-42.096443
5407.226562	-43.038441
5408.203125	-43.484196
5409.179688	-43.508923
5410.156250	-42.908260
5411.132812	-43.610596
5412.109375	-42.322884
5413.085938	-42.695457
5414.062500	-42.285931
5415.039062	-42.715145
5416.015625	-42.479187
5416.992188	-42.017120
5417.968750	-42.926113
5418.945312	-43.107555
5419.921875	-43.909977
5420.898438	-42.947266
5421.875000	-42.602810
5422.851562	-42.761448
5423.828125	-43.324646
5424.804688	-42.703758
5425.781250	-42.413570
5426.757812	-42.683571
5427.734375	-43.184158
5428.710938	-42.898670
5429.687500	-43.729210
5430.664062	-44.115082
5431.640625	-43.549732
5432.617188	-42.978897
5433.593750	-43.015228
5434.570312	-42.749741
5435.546875	-43.657452
5436.523438	-42.870728
5437.500000	-42.649906
5438.476562	-43.737465
5439.453125	-42.497551
5440.429688	-41.683163
5441.406250	-42.991169
5442.382812	-42.215630
5443.359375	-43.585575
5444.335938	-42.522911
5445.312500	-41.744389
5446.289062	-43.290005
5447.265625	-42.800606
5448.242188	-42.439911
5449.218750	-43.629204
5450.195312	-42.625633
5451.171875	-42.782391
5452.148438	-43.542942
5453.125000	-43.032928
5454.101562	-44.808399
5455.078125	-43.568172
5456.054688	-44.237770
5457.031250	-42.288784
5458.007812	-42.006458
5458.984375	-43.489609
5459.960938	-43.363506
5460.937500	-43.333073
5461.914062	-43.228523
5462.890625	-42.099133
5463.867188	-42.906834
5464.843750	-43.727905
5465.820312	-42.573021
5466.796875	-42.274265
5467.773438	-43.127396
5468.750000	-42.478771
5469.726562	-42.853188
5470.703125	-42.313728
5471.679688	-43.073956
5472.656250	-42.467808
5473.632812	-43.158752
5474.609375	-43.207119
5475.585938	-42.471172
5476.562500	-43.267902
5477.539062	-42.520672
5478.515625	-41.871994
5479.492188	-42.618080
5480.468750	-43.543869
5481.445312	-42.074604
5482.421875	-42.389854
5483.398438	-43.474499
5484.375000	-42.535709
5485.351562	-42.512291
5486.328125	-43.014141
5487.304688	-42.778336
5488.281250	-43.393066
5489.257812	-43.338951
5490.234375	-43.322998
5491.210938	-42.289970
5492.187500	-42.855919
5493.164062	-42.101574
5494.140625	-42.278469
5495.117188	-43.165192
5496.093750	-43.335838
5497.070312	-43.392277
5498.046875	-42.482956
5499.023438	-41.357754
5500.000000	-42.690140
5500.976562	-42.580379
5501.953125	-42.593418
5502.929688	-43.901546
5503.906250	-42.953033
5504.882812	-43.693977
5505.859375	-43.043026
5506.835938	-42.461681
5507.812500	-43.006855
5508.789062	-43.231148
5509.765625	-43.184719
5510.742188	-42.994633
5511.718750	-42.588634
5512.695312	-43.007248
5513.671875	-43.187370
5514.648438	-43.038849
5515.625000	-42.582283
5516.601562	-41.651394
5517.578125	-43.422363
5518.554688	-43.107136
5519.531250	-42.444878
5520.507812	-43.538052
5521.484375	-42.510159
5522.460938	-42.929142
5523.437500	-42.453754
5524.414062	-42.220703
5525.390625	-42.612209
5526.367188	-41.520519
5527.343750	-42.512630
5528.320312	-42.508362
5529.296875	-42.276863
5530.273438	-43.665310
5531.250000	-43.326172
5532.226562	-43.055733
5533.203125	-43.627686
5534.179688	-42.341728
5535.156250	-43.009346
5536.132812	-42.927723
5537.109375	-43.395870
5538.085938	-42.389282
5539.062500	-43.540527
5540.039062	-41.768616
5541.015625	-42.989067
5541.992188	-42.537415
5542.968750	-43.030384
5543.945312	-42.636143
5544.921875	-43.582603
5545.898438	-43.134708
5546.875000	-44.455589
5547.851562	-43.005737
5548.828125	-41.905041
5549.804688	-42.893753
5550.781250	-42.291191
5551.757812	-42.834656
5552.734375	-43.699604
5553.710938	-43.132824
5554.687500	-41.429935
5555.664062	-42.747303
5556.640625	-43.269306
5557.617188	-42.512241
5558.593750	-42.039471
5559.570312	-44.200535
5560.546875	-42.492638
5561.523438	-42.994801
5562.500000	-43.706890
5563.476562	-43.513054
5564.453125	-42.389023
5565.429688	-42.805885
5566.406250	-43.149433
5567.382812	-42.526497
5568.359375	-43.064789
5569.335938	-42.228382
5570.312500	-44.648052
5571.289062	-43.161251
5572.265625	-43.067234
5573.242188	-43.865799
5574.218750	-42.068024
5575.195312	-41.544464
5576.171875	-43.920338
5577.148438	-43.994469
5578.125000	-43.470497
5579.101562	-42.895386
5580.078125	-42.596165
5581.054688	-42.626221
5582.031250	-43.465904
5583.007812	-42.826370
5583.984375	-42.063202
5584.960938	-42.499382
5585.937500	-43.272839
5586.914062	-42.142056
5587.890625	-42.609417
5588.867188	-43.495872
5589.843750	-44.011909
5590.820312	-42.019165
5591.796875	-42.945515
5592.773438	-42.624039
5593.750000	-43.431061
5594.726562	-41.690208
5595.703125	-43.326591
5596.679688	-43.550327
5597.656250	-42.766628
5598.632812	-43.471272
5599.609375	-42.263523
5600.585938	-41.776649
5601.562500	-42.171803
5602.539062	-43.948734
5603.515625	-44.708298
5604.492188	-44.131149
5605.468750	-42.323009
5606.445312	-43.050465
5607.421875	-43.259789
5608.398438	-41.647346
5609.375000	-42.064457
5610.351562	-42.821964
5611.328125	-42.523197
5612.304688	-43.919189
5613.281250	-42.698677
5614.257812	-41.330547
5615.234375	-41.432793
5616.210938	-42.672951
5617.187500	-43.804592
5618.164062	-43.207989
5619.140625	-43.124043
5620.117188	-42.823982
5621.093750	-43.488804
5622.070312	-43.735008
5623.046875	-42.402534
5624.023438	-41.961010
5625.000000	-44.385281
5625.976562	-42.839603
5626.953125	-42.125313
5627.929688	-42.449745
5628.906250	-42.716354
5629.882812	-43.309299
5630.859375	-43.101311
5631.835938	-42.557953
5632.812500	-44.439762
5633.789062	-44.084751
5634.765625	-42.337452
5635.742188	-42.707172
5636.718750	-43.468872
5637.695312	-44.137932
5638.671875	-43.461800
5639.648438	-42.013390
5640.625000	-42.110588
5641.601562	-42.371662
5642.578125	-42.106140
5643.554688	-42.720867
5644.531250	-42.014996
5645.507812	-41.801708
5646.484375	-43.412159
5647.460938	-43.823868
5648.437500	-42.847107
5649.414062	-43.328987
5650.390625	-42.742802
5651.367188	-42.691753
5652.343750	-42.904385
5653.320312	-42.252346
5654.296875	-42.263683
5655.273438	-42.742809
5656.250000	-42.937935
5657.226562	-41.402344
5658.203125	-42.325562
5659.179688	-42.416382
5660.156250	-42.422096
5661.132812	-43.592175
5662.109375	-44.042107
5663.085938	-43.182079
5664.062500	-43.322891
5665.039062	-43.331390
5666.015625	-42.757118
5666.992188	-43.508778
5667.968750	-42.580070
5668.945312	-42.980511
5669.921875	-42.185608
5670.898438	-42.502941
5671.875000	-44.792210
5672.851562	-43.942970
5673.828125	-43.474827
5674.804688	-42.951904
5675.781250	-43.171963
5676.757812	-42.627193
5677.734375	-43.405827
5678.710938	-42.145164
5679.687500	-43.337173
5680.664062	-43.756325
5681.640625	-43.532551
5682.617188	-42.536068
5683.593750	-42.290653
5684.570312	-42.967690
5685.546875	-41.685669
5686.523438	-42.643581
5687.500000	-43.076328
5688.476562	-44.322048
5689.453125	-42.351719
5690.429688	-42.721863
5691.406250	-43.494976
5692.382812	-42.620132
5693.359375	-44.033356
5694.335938	-42.539425
5695.312500	-42.456646
5696.289062	-42.832104
5697.265625	-42.664768
5698.242188	-43.820225
5699.218750	-41.789154
5700.195312	-41.703453
5701.171875	-42.566948
5702.148438	-43.397888
5703.125000	-43.011021
5704.101562	-42.748768
5705.078125	-43.758183
5706.054688	-43.805511
5707.031250	-43.236530
5708.007812	-42.587154
5708.984375	-42.664318
5709.960938	-42.294182
5710.937500	-42.058132
5711.914062	-43.758770
5712.890625	-42.497078
5713.867188	-43.047062
5714.843750	-41.572895
5715.820312	-42.609478
5716.796875	-41.930496
5717.773438	-43.484615
5718.750000	-42.923500
5719.726562	-42.801598
5720.703125	-44.884827
5721.679688	-41.773041
5722.656250	-42.198677
5723.632812	-41.920101
5724.609375	-42.530277
5725.585938	-41.658775
5726.562500	-42.659943
5727.539062	-42.952778
5728.515625	-43.846821
5729.492188	-42.718418
5730.468750	-42.795486
5731.445312	-42.441730
5732.421875	-43.593910
5733.398438	-41.823669
5734.375000	-43.729462
5735.351562	-43.996941
5736.328125	-42.704201
5737.304688	-42.829758
5738.281250	-43.848186
5739.257812	-43.422813
5740.234375	-41.596279
5741.210938	-42.969784
5742.187500	-43.887310
5743.164062	-42.316925
5744.140625	-41.191563
5745.117188	-44.176102
5746.093750	-41.676136
5747.070312	-43.381256
5748.046875	-42.111904
5749.023438	-42.333538
5750.000000	-41.573723
5750.976562	-42.517807
5751.953125	-43.396988
5752.929688	-42.999046
5753.906250	-44.143032
5754.882812	-42.201698
5755.859375	-42.126457
5756.835938	-42.089169
5757.812500	-43.097767
5758.789062	-42.951916
5759.765625	-42.283760
5760.742188	-43.560883
5761.718750	-42.343693
5762.695312	-43.243187
5763.671875	-42.261951
5764.648438	-42.761391
5765.625000	-42.848972
5766.601562	-43.603336
5767.578125	-43.104145
5768.554688	-42.688446
5769.531250	-42.834877
5770.507812	-42.804207
5771.484375	-45.439423
5772.460938	-42.942825
5773.437500	-44.059509
5774.414062	-42.539711
5775.390625	-44.233658
5776.367188	-43.390636
5777.343750	-43.340515
5778.320312	-43.500931
5779.296875	-43.888302
5780.273438	-43.768021
5781.250000	-43.319233
5782.226562	-42.993679
5783.203125	-41.986641
5784.179688	-41.331604
5785.156250	-42.012196
5786.132812	-42.144104
5787.109375	-43.019928
5788.085938	-42.954617
5789.062500	-42.532360
5790.039062	-42.915390
5791.015625	-43.034985
5791.992188	-42.868084
5792.968750	-42.467529
5793.945312	-42.825191
5794.921875	-42.930843
5795.898438	-43.575397
5796.875000	-42.579369
5797.851562	-42.399551
5798.828125	-43.006947
5799.804688	-43.675468
5800.781250	-41.960724
5801.757812	-43.615932
5802.734375	-43.238228
5803.710938	-42.517380
5804.687500	-43.399914
5805.664062	-43.763672
5806.640625	-42.230835
5807.617188	-44.018391
5808.593750	-42.357990
5809.570312	-42.573036
5810.546875	-43.748302
5811.523438	-42.568996
5812.500000	-42.714886
5813.476562	-43.016792
5814.453125	-42.848557
5815.429688	-42.665657
5816.406250	-43.873188
5817.382812	-42.070793
5818.359375	-42.050430
5819.335938	-42.842796
5820.312500	-42.860565
5821.289062	-44.562962
5822.265625	-44.472706
5823.242188	-43.006863
5824.218750	-41.904495
5825.195312	-43.458366
5826.171875	-42.606529
5827.148438	-42.597214
5828.125000	-42.692787
5829.101562	-43.366066
5830.078125	-43.037968
5831.054688	-41.520107
5832.031250	-43.187202
5833.007812	-42.681168
5833.984375	-42.565159
5834.960938	-43.732346
5835.937500	-43.991924
5836.914062	-43.308502
5837.890625	-43.256187
5838.867188	-42.116325
5839.843750	-42.251476
5840.820312	-42.681007
5841.796875	-42.382153
5842.773438	-43.248413
5843.750000	-41.640125
5844.726562	-40.997772
5845.703125	-43.615437
5846.679688	-43.208389
5847.656250	-43.408909
5848.632812	-43.208122
5849.609375	-42.393883
5850.585938	-43.087860
5851.562500	-43.883118
5852.539062	-43.093819
5853.515625	-42.844723
5854.492188	-41.029510
5855.468750	-42.865318
5856.445312	-43.561813
5857.421875	-44.637730
5858.398438	-43.158615
5859.375000	-43.807102
5860.351562	-42.564072
5861.328125	-43.555016
5862.304688	-43.355289
5863.281250	-41.846516
5864.257812	-43.619450
5865.234375	-42.498028
5866.210938	-42.478561
5867.187500	-43.586979
5868.164062	-42.192451
5869.140625	-43.138103
5870.117188	-41.822445
5871.093750	-44.873329
5872.070312	-43.115803
5873.046875	-43.776688
5874.023438	-44.654434
5875.000000	-42.862637
5875.976562	-42.763599
5876.953125	-43.548866
5877.929688	-41.994965
5878.906250	-43.240311
5879.882812	-42.600266
5880.859375	-42.558182
5881.835938	-44.452049
5882.812500	-42.850967
5883.789062	-42.065483
5884.765625	-43.477348
5885.742188	-42.539818
5886.718750	-42.296047
5887.695312	-42.710415
5888.671875	-43.044884
5889.648438	-42.545246
5890.625000	-43.116852
5891.601562	-43.537052
5892.578125	-42.393459
5893.554688	-43.095768
5894.531250	-43.789989
5895.507812	-42.442829
5896.484375	-42.878044
5897.460938	-43.878723
5898.437500	-43.374397
5899.414062	-41.663002
5900.390625	-43.439369
5901.367188	-42.906715
5902.343750	-44.319809
5903.320312	-43.099377
5904.296875	-42.758545
5905.273438	-43.214615
5906.250000	-42.658215
5907.226562	-42.119774
5908.203125	-43.037624
5909.179688	-43.675095
5910.156250	-42.329311
5911.132812	-43.490734
5912.109375	-43.631203
5913.085938	-43.230419
5914.062500	-41.672718
5915.039062	-43.657158
5916.015625	-43.162403
5916.992188	-42.883873
5917.968750	-42.262714
5918.945312	-42.415890
5919.921875	-41.574856
5920.898438	-42.420662
5921.875000	-43.568378
5922.851562	-43.391163
5923.828125	-42.711338
5924.804688	-43.276333
5925.781250	-43.320099
5926.757812	-43.479313
5927.734375	-42.886543
5928.710938	-43.033539
5929.687500	-43.221077
5930.664062	-44.095753
5931.640625	-43.077152
5932.617188	-42.573383
5933.593750	-43.882973
5934.570312	-42.518349
5935.546875	-42.768581
5936.523438	-42.966797
5937.500000	-41.853771
5938.476562	-42.681084
5939.453125	-42.907562
5940.429688	-40.593575
5941.406250	-42.192314
5942.382812	-43.223347
5943.359375	-42.604881
5944.335938	-41.864559
5945.312500	-42.824791
5946.289062	-42.405823
5947.265625	-42.402592
5948.242188	-43.013165
5949.218750	-42.624069
5950.195312	-42.959179
5951.171875	-42.746487
5952.148438	-42.014526
5953.125000	-43.404224
5954.101562	-42.484425
5955.078125	-42.242378
5956.054688	-41.997353
5957.031250	-42.371456
5958.007812	-43.148506
5958.984375	-43.542305
5959.960938	-41.642986
5960.937500	-42.567181
5961.914062	-42.428917
5962.890625	-42.564762
5963.867188	-43.044418
5964.843750	-43.774574
5965.820312	-43.125671
5966.796875	-41.754040
5967.773438	-42.686600
5968.750000	-43.773994
5969.726562	-42.340961
5970.703125	-43.254555
5971.679688	-42.983166
5972.656250	-42.443439
5973.632812	-42.992428
5974.609375	-42.338470
5975.585938	-42.527134
5976.562500	-43.464821
5977.539062	-42.727142
5978.515625	-43.962654
5979.492188	-43.362099
5980.468750	-44.426941
5981.445312	-42.748768
5982.421875	-42.213345
5983.398438	-43.029087
5984.375000	-42.689739
5985.351562	-42.602196
5986.328125	-42.450653
5987.304688	-43.772362
5988.281250	-42.314445
5989.257812	-43.209686
5990.234375	-43.813866
5991.210938	-43.548508
5992.187500	-42.158928
5993.164062	-42.590164
5994.140625	-42.879238
5995.117188	-43.686314
5996.093750	-42.347542
5997.070312	-42.703205
5998.046875	-42.971947
5999.023438	-44.490898
6000.000000	-43.869984
6000.976562	-43.620544
6001.953125	-42.471218
6002.929688	-41.605042
6003.906250	-42.866581
6004.882812	-44.092773
6005.859375	-44.495354
6006.835938	-41.699116
6007.812500	-43.068939
6008.789062	-42.774048
6009.765625	-42.632107
6010.742188	-43.111561
6011.718750	-43.287785
6012.695312	-41.616459
6013.671875	-44.085716
6014.648438	-43.509823
6015.625000	-42.065208
6016.601562	-42.811588
6017.578125	-43.106163
6018.554688	-43.675533
6019.531250	-42.109821
6020.507812	-42.726448
6021.484375	-41.829529
6022.460938	-42.776924
6023.437500	-43.964005
6024.414062	-42.245785
6025.390625	-44.182983
6026.367188	-42.455460
6027.343750	-43.250004
6028.320312	-42.778229
6029.296875	-42.322269
6030.273438	-43.526516
6031.250000	-43.638199
6032.226562	-42.345257
6033.203125	-43.063751
6034.179688	-42.738468
6035.156250	-42.635098
6036.132812	-42.681915
6037.109375	-44.091026
6038.085938	-43.410999
6039.062500	-43.027222
6040.039062	-42.846474
6041.015625	-42.652477
6041.992188	-41.720577
6042.968750	-42.194290
6043.945312	-42.514767
6044.921875	-41.908482
6045.898438	-43.155521
6046.875000	-42.998657
6047.851562	-42.591610
6048.828125	-42.575558
6049.804688	-42.114983
6050.781250	-41.696529
6051.757812	-43.131752
6052.734375	-42.878075
6053.710938	-42.802959
6054.687500	-43.292233
6055.664062	-42.520214
6056.640625	-43.372398
6057.617188	-42.300663
6058.593750	-42.226612
6059.570312	-42.245228
6060.546875	-42.400650
6061.523438	-41.523090
6062.500000	-42.217663
6063.476562	-43.652813
6064.453125	-41.967430
6065.429688	-41.721676
6066.406250	-42.713100
6067.382812	-43.222862
6068.359375	-41.883095
6069.335938	-42.074028
6070.312500	-41.877071
6071.289062	-42.696354
6072.265625	-42.949108
6073.242188	-43.947365
6074.218750	-42.070755
6075.195312	-43.805084
6076.171875	-43.253342
6077.148438	-42.413193
6078.125000	-42.477016
6079.101562	-41.952446
6080.078125	-43.444145
6081.054688	-42.361282
6082.031250	-42.551731
6083.007812	-41.633842
6083.984375	-42.054768
6084.960938	-41.936798
6085.937500	-43.635223
6086.914062	-42.678776
6087.890625	-42.485027
6088.867188	-42.384987
6089.843750	-42.255878
6090.820312	-43.877728
6091.796875	-42.818115
6092.773438	-43.539436
6093.750000	-43.182514
6094.726562	-42.948051
6095.703125	-42.872402
6096.679688	-41.284363
6097.656250	-42.810146
6098.632812	-42.229534
6099.609375	-43.707417
6100.585938	-43.227463
6101.562500	-44.187668
6102.539062	-43.236729
6103.515625	-42.653008
6104.492188	-41.781002
6105.468750	-42.974491
6106.445312	-43.393864
6107.421875	-41.991474
6108.398438	-42.203396
6109.375000	-42.877598
6110.351562	-42.492058
6111.328125	-42.825287
6112.304688	-42.837490
6113.281250	-42.622101
6114.257812	-43.390373
6115.234375	-43.049812
6116.210938	-42.845165
6117.187500	-41.464397
6118.164062	-41.676517
6119.140625	-42.309937
6120.117188	-42.175404
6121.093750	-42.972565
6122.070312	-41.851627
6123.046875	-41.868591
6124.023438	-41.608498
6125.000000	-43.840462
6125.976562	-42.886631
6126.953125	-42.359428
6127.929688	-42.934208
6128.906250	-42.830769
6129.882812	-41.159992
6130.859375	-42.499310
6131.835938	-42.756565
6132.812500	-43.281780
6133.789062	-43.412361
6134.765625	-43.658775
6135.742188	-42.990601
6136.718750	-42.849323
6137.695312	-42.618462
6138.671875	-43.836575
6139.648438	-42.709724
6140.625000	-43.367577
6141.601562	-44.182171
6142.578125	-42.999161
6143.554688	-42.501438
6144.531250	-42.272171
6145.507812	-42.893890
6146.484375	-41.954323
6147.460938	-42.810188
6148.437500	-42.792328
6149.414062	-42.660908
6150.390625	-42.049965
6151.367188	-42.934441
6152.343750	-44.039963
6153.320312	-43.339268
6154.296875	-43.965313
6155.273438	-42.836369
6156.250000	-43.459583
6157.226562	-43.911797
6158.203125	-42.776852
6159.179688	-43.658119
6160.156250	-43.768391
6161.132812	-43.246784
6162.109375	-41.715828
6163.085938	-42.415077
6164.062500	-43.060780
6165.039062	-42.378777
6166.015625	-42.925915
6166.992188	-43.083397
6167.968750	-41.845894
6168.945312	-42.300495
6169.921875	-42.389465
6170.898438	-43.793022
6171.875000	-43.371784
6172.851562	-43.728386
6173.828125	-42.467533
6174.804688	-41.275909
6175.781250	-42.267349
6176.757812	-42.698845
6177.734375	-41.599361
6178.710938	-42.384647
6179.687500	-43.068375
6180.664062	-42.438118
6181.640625	-43.718357
6182.617188	-42.322845
6183.593750	-43.472267
6184.570312	-43.391510
6185.546875	-41.789150
6186.523438	-43.166145
6187.500000	-42.759502
6188.476562	-42.963875
6189.453125	-42.272411
6190.429688	-43.142426
6191.406250	-41.394829
6192.382812	-44.398350
6193.359375	-41.955799
6194.335938	-42.285835
6195.312500	-42.654591
6196.289062	-42.076225
6197.265625	-43.494843
6198.242188	-42.369244
6199.218750	-42.088707
6200.195312	-41.405533
6201.171875	-43.218437
6202.148438	-42.969200
6203.125000	-43.278008
6204.101562	-42.620480
6205.078125	-43.075554
6206.054688	-42.855362
6207.031250	-43.062626
6208.007812	-42.946548
6208.984375	-42.913876
6209.960938	-43.034325
6210.937500	-43.566040
6211.914062	-44.040489
6212.890625	-42.318806
6213.867188	-42.699905
6214.843750	-42.223335
6215.820312	-42.984028
6216.796875	-42.892792
6217.773438	-43.562740
6218.750000	-43.462868
6219.726562	-43.256874
6220.703125	-42.731861
6221.679688	-42.149448
6222.656250	-43.090652
6223.632812	-43.037853
6224.609375	-44.120243
6225.585938	-43.582691
6226.562500	-43.071682
6227.539062	-43.221222
6228.515625	-42.354187
6229.492188	-43.199509
6230.468750	-42.918278
6231.445312	-42.265148
6232.421875	-43.483421
6233.398438	-43.047020
6234.375000	-42.929935
6235.351562	-42.059418
6236.328125	-42.082256
6237.304688	-43.968086
6238.281250	-43.152184
6239.257812	-42.212708
6240.234375	-42.545940
6241.210938	-42.005466
6242.187500	-42.211563
6243.164062	-42.584618
6244.140625	-41.736900
6245.117188	-43.362198
6246.093750	-42.813206
6247.070312	-43.176441
6248.046875	-42.463062
6249.023438	-42.731010
6250.000000	-41.845482
6250.976562	-43.502048
6251.953125	-44.191765
6252.929688	-44.583260
6253.906250	-41.797836
6254.882812	-42.750381
6255.859375	-42.728405
6256.835938	-42.851540
6257.812500	-43.544254
6258.789062	-42.671227
6259.765625	-42.572968
6260.742188	-42.333820
6261.718750	-42.335175
6262.695312	-43.084145
6263.671875	-43.206860
6264.648438	-42.494232
6265.625000	-44.560066
6266.601562	-42.710484
6267.578125	-41.738701
6268.554688	-42.087940
6269.531250	-43.481026
6270.507812	-43.061031
6271.484375	-41.728729
6272.460938	-42.375839
6273.437500	-42.179356
6274.414062	-42.621616
6275.390625	-42.850380
6276.367188	-41.931549
6277.343750	-42.732624
6278.320312	-42.329369
6279.296875	-42.267723
6280.273438	-42.937351
6281.250000	-43.326984
6282.226562	-43.308235
6283.203125	-42.475800
6284.179688	-42.520370
6285.156250	-42.814865
6286.132812	-43.823105
6287.109375	-43.045258
6288.085938	-42.837688
6289.062500	-42.517044
6290.039062	-42.223648
6291.015625	-43.828869
6291.992188	-42.739117
6292.968750	-43.022957
6293.945312	-42.622314
6294.921875	-42.951866
6295.898438	-43.046547
6296.875000	-42.402973
6297.851562	-40.956112
6298.828125	-42.418945
6299.804688	-42.409958
6300.781250	-42.122967
6301.757812	-42.077553
6302.734375	-43.792316
6303.710938	-42.456367
6304.687500	-42.110580
6305.664062	-42.508011
6306.640625	-42.410881
6307.617188	-41.830654
6308.593750	-43.382904
6309.570312	-42.687992
6310.546875	-42.804245
6311.523438	-42.491302
6312.500000	-42.590496
6313.476562	-43.795803
6314.453125	-44.449436
6315.429688	-44.473751
6316.406250	-42.539909
6317.382812	-43.006271
6318.359375	-43.699635
6319.335938	-44.934341
6320.312500	-44.148685
6321.289062	-44.207661
6322.265625	-43.597427
6323.242188	-42.406960
6324.218750	-43.850834
6325.195312	-42.691307
6326.171875	-44.982632
6327.148438	-44.262505
6328.125000	-43.886040
6329.101562	-42.997841
6330.078125	-43.344448
6331.054688	-41.643734
6332.031250	-42.641468
6333.007812	-41.625221
6333.984375	-42.751972
6334.960938	-42.822762
6335.937500	-42.991959
6336.914062	-42.572994
6337.890625	-42.254093
6338.867188	-41.663502
6339.843750	-41.508408
6340.820312	-42.724873
6341.796875	-42.342541
6342.773438	-42.583630
6343.750000	-44.501701
6344.726562	-43.165852
6345.703125	-41.780743
6346.679688	-42.830044
6347.656250	-44.066788
6348.632812	-41.208221
6349.609375	-43.217529
6350.585938	-42.090092
6351.562500	-43.832138
6352.539062	-44.346279
6353.515625	-43.500504
6354.492188	-43.328896
6355.468750	-42.679905
6356.445312	-43.316475
6357.421875	-42.844891
6358.398438	-42.297691
6359.375000	-42.617786
6360.351562	-41.572155
6361.328125	-43.503128
6362.304688	-42.745487
6363.281250	-42.223743
6364.257812	-44.177509
6365.234375	-43.345417
6366.210938	-43.075497
6367.187500	-43.317181
6368.164062	-43.729477
6369.140625	-44.608715
6370.117188	-43.960510
6371.093750	-42.468845
6372.070312	-42.507122
6373.046875	-44.146946
6374.023438	-44.108971
6375.000000	-42.611031
6375.976562	-42.327763
6376.953125	-42.402050
6377.929688	-42.688087
6378.906250	-42.148106
6379.882812	-42.075443
6380.859375	-42.487537
6381.835938	-43.559532
6382.812500	-42.762630
6383.789062	-43.778618
6384.765625	-43.250870
6385.742188	-42.507587
6386.718750	-43.949200
6387.695312	-42.945995
6388.671875	-41.998714
6389.648438	-43.608509
6390.625000	-44.212059
6391.601562	-42.141346
6392.578125	-43.822517
6393.554688	-44.158535
6394.531250	-42.907990
6395.507812	-43.602669
6396.484375	-41.416351
6397.460938	-45.496647
6398.437500	-42.818264
6399.414062	-42.822159
6400.390625	-42.670670
6401.367188	-42.389080
6402.343750	-43.145287
6403.320312	-41.987911
6404.296875	-43.250198
6405.273438	-43.347492
6406.250000	-42.497879
6407.226562	-43.238693
6408.203125	-44.473316
6409.179688	-44.632462
6410.156250	-43.763023
6411.132812	-43.757442
6412.109375	-43.183083
6413.085938	-41.923203
6414.062500	-43.023815
6415.039062	-42.820587
6416.015625	-42.500458
6416.992188	-43.554409
6417.968750	-42.496632
6418.945312	-42.715935
6419.921875	-42.135731
6420.898438	-42.915794
6421.875000	-43.990566
6422.851562	-43.538937
6423.828125	-42.366840
6424.804688	-43.371010
6425.781250	-43.417088
6426.757812	-43.587723
6427.734375	-42.418591
6428.710938	-42.853016
6429.687500	-43.951805
6430.664062	-42.613007
6431.640625	-43.095947
6432.617188	-41.826756
6433.593750	-42.930466
6434.570312	-42.909386
6435.546875	-43.512581
6436.523438	-42.361519
6437.500000	-42.185104
6438.476562	-42.912838
6439.453125	-41.841923
6440.429688	-42.728851
6441.406250	-42.761143
6442.382812	-42.844246
6443.359375	-41.479256
6444.335938	-42.066490
6445.312500	-43.207211
6446.289062	-43.415283
6447.265625	-42.717709
6448.242188	-42.833241
6449.218750	-43.992107
6450.195312	-44.526623
6451.171875	-43.077305
6452.148438	-43.276241
6453.125000	-44.216949
6454.101562	-43.420967
6455.078125	-43.995625
6456.054688	-43.479218
6457.031250	-43.372269
6458.007812	-43.766453
6458.984375	-40.654373
6459.960938	-44.151321
6460.937500	-42.712612
6461.914062	-42.557495
6462.890625	-42.659855
6463.867188	-43.414322
6464.843750	-42.699306
6465.820312	-40.883148
6466.796875	-42.135864
6467.773438	-43.005302
6468.750000	-41.771950
6469.726562	-41.614250
6470.703125	-42.236210
6471.679688	-42.686378
6472.656250	-41.934559
6473.632812	-43.002300
6474.609375	-42.620922
6475.585938	-43.461113
6476.562500	-43.315903
6477.539062	-43.570564
6478.515625	-42.794277
6479.492188	-41.874405
6480.468750	-41.834461
6481.445312	-41.866039
6482.421875	-42.224716
6483.398438	-42.689034
6484.375000	-42.200890
6485.351562	-43.989914
6486.328125	-42.454975
6487.304688	-42.775665
6488.281250	-41.951656
6489.257812	-42.105042
6490.234375	-42.317867
6491.210938	-42.611843
6492.187500	-41.821758
6493.164062	-42.242329
6494.140625	-42.159527
6495.117188	-42.641972
6496.093750	-43.905628
6497.070312	-42.087952
6498.046875	-42.240070
6499.023438	-41.182224
6500.000000	-42.197975
6500.976562	-41.662689
6501.953125	-43.709431
6502.929688	-43.692429
6503.906250	-42.555565
6504.882812	-42.979183
6505.859375	-43.308159
6506.835938	-41.962315
6507.812500	-43.120975
6508.789062	-43.015518
6509.765625	-42.237236
6510.742188	-42.794205
6511.718750	-42.164104
6512.695312	-42.069969
6513.671875	-43.202911
6514.648438	-42.791180
6515.625000	-43.264713
6516.601562	-43.738422
6517.578125	-42.095600
6518.554688	-43.160168
6519.531250	-44.057774
6520.507812	-42.879791
6521.484375	-42.197178
6522.460938	-42.067619
6523.437500	-42.817730
6524.414062	-41.717083
6525.390625	-42.706993
6526.367188	-43.245277
6527.343750	-42.338383
6528.320312	-43.514660
6529.296875	-42.080353
6530.273438	-43.636944
6531.250000	-41.506046
6532.226562	-42.717346
6533.203125	-43.683353
6534.179688	-42.049454
6535.156250	-43.160961
6536.132812	-44.404102
6537.109375	-44.041325
6538.085938	-41.696980
6539.062500	-42.253803
6540.039062	-42.086533
6541.015625	-42.767998
6541.992188	-42.711983
6542.968750	-43.476032
6543.945312	-44.054089
6544.921875	-43.538883
6545.898438	-43.212353
6546.875000	-42.960594
6547.851562	-42.419506
6548.828125	-42.655853
6549.804688	-42.752590
6550.781250	-42.495728
6551.757812	-43.529755
6552.734375	-42.213924
6553.710938	-42.962547
6554.687500	-43.495872
6555.664062	-43.242409
6556.640625	-43.872738
6557.617188	-44.081150
6558.593750	-42.725384
6559.570312	-43.349430
6560.546875	-43.490799
6561.523438	-42.374466
6562.500000	-43.124660
6563.476562	-43.102921
6564.453125	-43.735950
6565.429688	-43.750835
6566.406250	-42.035984
6567.382812	-43.196934
6568.359375	-42.368111
6569.335938	-43.458656
6570.312500	-43.248749
6571.289062	-43.113621
6572.265625	-42.421879
6573.242188	-43.726982
6574.218750	-42.544422
6575.195312	-43.547813
6576.171875	-43.173149
6577.148438	-43.113945
6578.125000	-43.540310
6579.101562	-43.086174
6580.078125	-42.901333
6581.054688	-43.901981
6582.031250	-42.942818
6583.007812	-44.014442
6583.984375	-43.116074
6584.960938	-42.893822
6585.937500	-41.691113
6586.914062	-43.029137
6587.890625	-43.337147
6588.867188	-43.680027
6589.843750	-42.020420
6590.820312	-42.477718
6591.796875	-42.891659
6592.773438	-42.270454
6593.750000	-42.013920
6594.726562	-43.415005
6595.703125	-42.229053
6596.679688	-43.279221
6597.656250	-43.132053
6598.632812	-43.216114
6599.609375	-42.569416
6600.585938	-43.493786
6601.562500	-43.286785
6602.539062	-44.320507
6603.515625	-42.853237
6604.492188	-43.859528
6605.468750	-42.352024
6606.445312	-42.313217
6607.421875	-43.289089
6608.398438	-43.580921
6609.375000	-42.889576
6610.351562	-42.362000
6611.328125	-42.182941
6612.304688	-43.497002
6613.281250	-42.086613
6614.257812	-43.133350
6615.234375	-42.703369
6616.210938	-41.564922
6617.187500	-43.114246
6618.164062	-43.142513
6619.140625	-43.467857
6620.117188	-43.195591
6621.093750	-41.933434
6622.070312	-43.092083
6623.046875	-42.504585
6624.023438	-44.350571
6625.000000	-42.711391
6625.976562	-42.576641
6626.953125	-43.001598
6627.929688	-43.084026
6628.906250	-42.171593
6629.882812	-43.098152
6630.859375	-43.065624
6631.835938	-43.545719
6632.812500	-42.423283
6633.789062	-43.017754
6634.765625	-42.163860
6635.742188	-42.501171
6636.718750	-42.820641
6637.695312	-42.354595
6638.671875	-42.899048
6639.648438	-43.554398
6640.625000	-42.666267
6641.601562	-43.462006
6642.578125	-42.370632
6643.554688	-43.508511
6644.531250	-42.283787
6645.507812	-43.462566
6646.484375	-41.828098
6647.460938	-42.116375
6648.437500	-42.373768
6649.414062	-42.374817
6650.390625	-41.674141
6651.367188	-42.017281
6652.343750	-41.678467
6653.320312	-42.609936
6654.296875	-42.777382
6655.273438	-43.531162
6656.250000	-41.598335
6657.226562	-43.451790
6658.203125	-43.034370
6659.179688	-42.382172
6660.156250	-43.437469
6661.132812	-42.285702
6662.109375	-44.594456
6663.085938	-42.915134
6664.062500	-42.762733
6665.039062	-44.785484
6666.015625	-43.886227
6666.992188	-43.417046
6667.968750	-43.383377
6668.945312	-43.260723
6669.921875	-42.985794
6670.898438	-43.103760
6671.875000	-43.570713
6672.851562	-44.417435
6673.828125	-43.510704
6674.804688	-44.160950
6675.781250	-42.963703
6676.757812	-42.215843
6677.734375	-43.086510
6678.710938	-42.041191
6679.687500	-42.778748
6680.664062	-42.300098
6681.640625	-43.559563
6682.617188	-42.033371
6683.593750	-43.206741
6684.570312	-43.808071
6685.546875	-43.624176
6686.523438	-42.760014
6687.500000	-42.235985
6688.476562	-41.770420
6689.453125	-41.618099
6690.429688	-43.467854
6691.406250	-44.821289
6692.382812	-42.944260
6693.359375	-42.051674
6694.335938	-43.160255
6695.312500	-43.650021
6696.289062	-42.183704
6697.265625	-42.303333
6698.242188	-43.803143
6699.218750	-42.513096
6700.195312	-42.755871
6701.171875	-43.261253
6702.148438	-42.801594
6703.125000	-43.509392
6704.101562	-42.471245
6705.078125	-41.546593
6706.054688	-42.533806
6707.031250	-42.728489
6708.007812	-42.163502
6708.984375	-42.910435
6709.960938	-42.092503
6710.937500	-43.968227
6711.914062	-42.599270
6712.890625	-42.424999
6713.867188	-43.676064
6714.843750	-42.305279
6715.820312	-43.250912
6716.796875	-43.294712
6717.773438	-42.297237
6718.750000	-43.293484
6719.726562	-44.456940
6720.703125	-42.847458
6721.679688	-42.600063
6722.656250	-43.924046
6723.632812	-43.039272
6724.609375	-42.502972
6725.585938	-42.766163
6726.562500	-44.070324
6727.539062	-41.569813
6728.515625	-43.708916
6729.492188	-42.902630
6730.468750	-43.140141
6731.445312	-43.632053
6732.421875	-41.925144
6733.398438	-42.893818
6734.375000	-43.719376
6735.351562	-42.983730
6736.328125	-42.403889
6737.304688	-41.849953
6738.281250	-43.550266
6739.257812	-42.402336
6740.234375	-43.631733
6741.210938	-43.203873
6742.187500	-42.643677
6743.164062	-42.116192
6744.140625	-42.348301
6745.117188	-42.857262
6746.093750	-42.095657
6747.070312	-42.466942
6748.046875	-44.338009
6749.023438	-42.867249
6750.000000	-42.201160
6750.976562	-42.615826
6751.953125	-43.662506
6752.929688	-42.467094
6753.906250	-43.631649
6754.882812	-42.509449
6755.859375	-42.413490
6756.835938	-42.408260
6757.812500	-43.792362
6758.789062	-43.750011
6759.765625	-43.028828
6760.742188	-43.154842
6761.718750	-42.933022
6762.695312	-42.840137
6763.671875	-43.917328
6764.648438	-43.001560
6765.625000	-41.546886
6766.601562	-42.512417
6767.578125	-42.490967
6768.554688	-42.457844
6769.531250	-43.273926
6770.507812	-43.354889
6771.484375	-42.530132
6772.460938	-43.390686
6773.437500	-42.902889
6774.414062	-43.975719
6775.390625	-43.130703
6776.367188	-43.357616
6777.343750	-42.281647
6778.320312	-42.773880
6779.296875	-42.129890
6780.273438	-44.345989
6781.250000	-44.307720
6782.226562	-43.878052
6783.203125	-42.693344
6784.179688	-43.053921
6785.156250	-43.161480
6786.132812	-43.032993
6787.109375	-43.703625
6788.085938	-42.483841
6789.062500	-42.975719
6790.039062	-42.660984
6791.015625	-42.755123
6791.992188	-42.587906
6792.968750	-43.781059
6793.945312	-43.288368
6794.921875	-43.014599
6795.898438	-41.708767
6796.875000	-41.983528
6797.851562	-42.375397
6798.828125	-42.541317
6799.804688	-43.088581
6800.781250	-42.484837
6801.757812	-43.667126
6802.734375	-42.587234
6803.710938	-41.275379
6804.687500	-43.424507
6805.664062	-43.752773
6806.640625	-41.555424
6807.617188	-43.718765
6808.593750	-43.809105
6809.570312	-41.895275
6810.546875	-41.629135
6811.523438	-43.759773
6812.500000	-42.717651
6813.476562	-43.036690
6814.453125	-43.557487
6815.429688	-43.550503
6816.406250	-42.773411
6817.382812	-42.057510
6818.359375	-42.416348
6819.335938	-42.334053
6820.312500	-42.398399
6821.289062	-43.132740
6822.265625	-42.521214
6823.242188	-42.982594
6824.218750	-43.070084
6825.195312	-42.322178
6826.171875	-42.802532
6827.148438	-42.518345
6828.125000	-43.721901
6829.101562	-42.699421
6830.078125	-43.434875
6831.054688	-42.645256
6832.031250	-42.322186
6833.007812	-42.913204
6833.984375	-42.091675
6834.960938	-43.794041
6835.937500	-41.549236
6836.914062	-42.323921
6837.890625	-44.419018
6838.867188	-43.732559
6839.843750	-42.763992
6840.820312	-43.257462
6841.796875	-42.060497
6842.773438	-43.003605
6843.750000	-43.367176
6844.726562	-43.707268
6845.703125	-44.265095
6846.679688	-43.410545
6847.656250	-42.578232
6848.632812	-42.495842
6849.609375	-43.459904
6850.585938	-42.572712
6851.562500	-42.172321
6852.539062	-43.452499
6853.515625	-43.031708
6854.492188	-43.415489
6855.468750	-43.153992
6856.445312	-43.381149
6857.421875	-42.379539
6858.398438	-42.591007
6859.375000	-42.217648
6860.351562	-42.509407
6861.328125	-41.556355
6862.304688	-43.812557
6863.281250	-42.574184
6864.257812	-42.522903
6865.234375	-43.240398
6866.210938	-42.391548
6867.187500	-42.867649
6868.164062	-43.687069
6869.140625	-42.492908
6870.117188	-43.509136
6871.093750	-43.975380
6872.070312	-42.824062
6873.046875	-44.008102
6874.023438	-42.379936
6875.000000	-43.446762
6875.976562	-43.899742
6876.953125	-44.034538
6877.929688	-42.403130
6878.906250	-41.753376
6879.882812	-43.159637
6880.859375	-42.888050
6881.835938	-40.828171
6882.812500	-42.231152
6883.789062	-42.654991
6884.765625	-42.623516
6885.742188	-42.411331
6886.718750	-44.028446
6887.695312	-42.995434
6888.671875	-42.750340
6889.648438	-42.134167
6890.625000	-42.740139
6891.601562	-43.121166
6892.578125	-43.366497
6893.554688	-43.340946
6894.531250	-42.537636
6895.507812	-43.473179
6896.484375	-43.940845
6897.460938	-43.135197
6898.437500	-42.593063
6899.414062	-42.767609
6900.390625	-42.880444
6901.367188	-41.444809
6902.343750	-42.405621
6903.320312	-43.015484
6904.296875	-41.854900
6905.273438	-42.267483
6906.250000	-43.028152
6907.226562	-43.484116
6908.203125	-41.632381
6909.179688	-42.401619
6910.156250	-43.076763
6911.132812	-42.905869
6912.109375	-42.935806
6913.085938	-42.558212
6914.062500	-43.414154
6915.039062	-42.720802
6916.015625	-42.589333
6916.992188	-42.036873
6917.968750	-43.188454
6918.945312	-42.551044
6919.921875	-42.947418
6920.898438	-43.131866
6921.875000	-42.240215
6922.851562	-42.080109
6923.828125	-43.984001
6924.804688	-42.949284
6925.781250	-41.724186
6926.757812	-42.950134
6927.734375	-41.818821
6928.710938	-42.146782
6929.687500	-43.730415
6930.664062	-43.521633
6931.640625	-42.684097
6932.617188	-42.491974
6933.593750	-42.812649
6934.570312	-43.120647
6935.546875	-43.441570
6936.523438	-44.017719
6937.500000	-42.597309
6938.476562	-42.035843
6939.453125	-42.891422
6940.429688	-42.347168
6941.406250	-42.934013
6942.382812	-43.899818
6943.359375	-41.277412
6944.335938	-42.379433
6945.312500	-44.023422
6946.289062	-43.624363
6947.265625	-44.212486
6948.242188	-42.621704
6949.218750	-43.148655
6950.195312	-43.126175
6951.171875	-42.479622
6952.148438	-43.249126
6953.125000	-43.134556
6954.101562	-42.825180
6955.078125	-42.541161
6956.054688	-42.471935
6957.031250	-42.483093
6958.007812	-42.735004
6958.984375	-42.860214
6959.960938	-43.766205
6960.937500	-42.586506
6961.914062	-43.364758
6962.890625	-43.140579
6963.867188	-43.427608
6964.843750	-43.602322
6965.820312	-43.542637
6966.796875	-42.273415
6967.773438	-42.240440
6968.750000	-42.264729
6969.726562	-42.857552
6970.703125	-43.130302
6971.679688	-43.304993
6972.656250	-42.497681
6973.632812	-43.086994
6974.609375	-42.569565
6975.585938	-42.961918
6976.562500	-42.849663
6977.539062	-42.956635
6978.515625	-43.710545
6979.492188	-42.670105
6980.468750	-42.156723
6981.445312	-43.137016
6982.421875	-42.635422
6983.398438	-43.058197
6984.375000	-42.847626
6985.351562	-44.016361
6986.328125	-42.970367
6987.304688	-42.792744
6988.281250	-42.542786
6989.257812	-43.064480
6990.234375	-42.711464
6991.210938	-41.865810
6992.187500	-42.735622
6993.164062	-43.609840
6994.140625	-42.877998
6995.117188	-41.974941
6996.093750	-43.305347
6997.070312	-42.414558
6998.046875	-43.307838
6999.023438	-42.239037
7000.000000	-42.740757
7000.976562	-42.888634
7001.953125	-43.096401
7002.929688	-42.571407
7003.906250	-42.265537
7004.882812	-42.150936
7005.859375	-42.891651
7006.835938	-43.028683
7007.812500	-42.930523
7008.789062	-44.218433
7009.765625	-43.812004
7010.742188	-42.672947
7011.718750	-42.911110
7012.695312	-42.983250
7013.671875	-42.870960
7014.648438	-41.391766
7015.625000	-42.551941
7016.601562	-43.746628
7017.578125	-43.037125
7018.554688	-43.248131
7019.531250	-42.049553
7020.507812	-43.156490
7021.484375	-44.060654
7022.460938	-43.107121
7023.437500	-42.320312
7024.414062	-41.825497
7025.390625	-43.705833
7026.367188	-42.632660
7027.343750	-42.822514
7028.320312	-42.086178
7029.296875	-43.230602
7030.273438	-43.516045
7031.250000	-42.518787
7032.226562	-41.830811
7033.203125	-43.341423
7034.179688	-42.947514
7035.156250	-42.416138
7036.132812	-43.952194
7037.109375	-43.235928
7038.085938	-42.439938
7039.062500	-42.406342
7040.039062	-43.665646
7041.015625	-43.015526
7041.992188	-42.818066
7042.968750	-42.575577
7043.945312	-42.716347
7044.921875	-44.591259
7045.898438	-41.876896
7046.875000	-42.464428
7047.851562	-44.067394
7048.828125	-42.639454
7049.804688	-42.574764
7050.781250	-42.944050
7051.757812	-43.596115
7052.734375	-42.912964
7053.710938	-42.472466
7054.687500	-42.632431
7055.664062	-42.018749
7056.640625	-42.121845
7057.617188	-42.691078
7058.593750	-43.132439
7059.570312	-43.412502
7060.546875	-42.280567
7061.523438	-42.398651
7062.500000	-42.723663
7063.476562	-42.405884
7064.453125	-43.798965
7065.429688	-43.656082
7066.406250	-42.305412
7067.382812	-43.733273
7068.359375	-42.936558
7069.335938	-43.025734
7070.312500	-41.807159
7071.289062	-43.222084
7072.265625	-42.731503
7073.242188	-42.804104
7074.218750	-42.251606
7075.195312	-43.504295
7076.171875	-42.850937
7077.148438	-43.455334
7078.125000	-43.247879
7079.101562	-43.890766
7080.078125	-42.885555
7081.054688	-43.570244
7082.031250	-44.277939
7083.007812	-43.303730
7083.984375	-42.843666
7084.960938	-42.674660
7085.937500	-43.053162
7086.914062	-43.177795
7087.890625	-43.376495
7088.867188	-42.434685
7089.843750	-43.082287
7090.820312	-43.356720
7091.796875	-41.857552
7092.773438	-42.040028
7093.750000	-43.052063
7094.726562	-42.828129
7095.703125	-42.257442
7096.679688	-43.005680
7097.656250	-42.064110
7098.632812	-42.705978
7099.609375	-42.162693
7100.585938	-42.607094
7101.562500	-42.184303
7102.539062	-42.517838
7103.515625	-43.064919
7104.492188	-43.725750
7105.468750	-43.154942
7106.445312	-43.487923
7107.421875	-43.250275
7108.398438	-43.280258
7109.375000	-43.751816
7110.351562	-43.617840
7111.328125	-43.900394
7112.304688	-43.271217
7113.281250	-43.538868
7114.257812	-42.723907
7115.234375	-43.408566
7116.210938	-43.365211
7117.187500	-44.003269
7118.164062	-41.273060
7119.140625	-42.475334
7120.117188	-44.571884
7121.093750	-42.923706
7122.070312	-43.175880
7123.046875	-43.360191
7124.023438	-44.017731
7125.000000	-42.470779
7125.976562	-43.154217
7126.953125	-42.625439
7127.929688	-42.722702
7128.906250	-42.845848
7129.882812	-43.437675
7130.859375	-42.296707
7131.835938	-43.179337
7132.812500	-42.988426
7133.789062	-44.324528
7134.765625	-42.758934
7135.742188	-43.049442
7136.718750	-42.709286
7137.695312	-43.212589
7138.671875	-43.663887
7139.648438	-43.758335
7140.625000	-43.542995
7141.601562	-44.021965
7142.578125	-44.050861
7143.554688	-42.582634
7144.531250	-41.853611
7145.507812	-42.438309
7146.484375	-43.211033
7147.460938	-41.549633
7148.437500	-42.273579
7149.414062	-43.692707
7150.390625	-42.625999
7151.367188	-43.063332
7152.343750	-41.954559
7153.320312	-43.188416
7154.296875	-42.945343
7155.273438	-42.684841
7156.250000	-44.044662
7157.226562	-43.618652
7158.203125	-42.511532
7159.179688	-42.484901
7160.156250	-42.805538
7161.132812	-43.333061
7162.109375	-43.906555
7163.085938	-42.460590
7164.062500	-42.455284
7165.039062	-42.842323
7166.015625	-41.574871
7166.992188	-43.119751
7167.968750	-42.637562
7168.945312	-42.554352
7169.921875	-43.905891
7170.898438	-43.032238
7171.875000	-43.828396
7172.851562	-43.743500
7173.828125	-42.467884
7174.804688	-43.272766
7175.781250	-42.572704
7176.757812	-43.047543
7177.734375	-43.048447
7178.710938	-42.833996
7179.687500	-42.467972
7180.664062	-43.606945
7181.640625	-42.534416
7182.617188	-42.902206
7183.593750	-42.605068
7184.570312	-42.907818
7185.546875	-42.263893
7186.523438	-43.070862
7187.500000	-42.315071
7188.476562	-41.986553
7189.453125	-43.119823
7190.429688	-42.028820
7191.406250	-42.676041
7192.382812	-43.238441
7193.359375	-41.231033
7194.335938	-42.521641
7195.312500	-42.153316
7196.289062	-42.126274
7197.265625	-42.944912
7198.242188	-42.951714
7199.218750	-43.677254
7200.195312	-43.000282
7201.171875	-42.047848
7202.148438	-42.956566
7203.125000	-42.765278
7204.101562	-43.745811
7205.078125	-42.211479
7206.054688	-42.902641
7207.031250	-43.341908
7208.007812	-42.499542
7208.984375	-43.782871
7209.960938	-42.976543
7210.937500	-43.612370
7211.914062	-43.501049
7212.890625	-42.388302
7213.867188	-43.647396
7214.843750	-43.125809
7215.820312	-43.121990
7216.796875	-42.556541
7217.773438	-43.595036
7218.750000	-41.291847
7219.726562	-43.051544
7220.703125	-43.233093
7221.679688	-42.372368
7222.656250	-43.147800
7223.632812	-43.332363
7224.609375	-42.894531
7225.585938	-42.945786
7226.562500	-44.700993
7227.539062	-43.234097
7228.515625	-43.755798
7229.492188	-42.620331
7230.468750	-43.265594
7231.445312	-44.384003
7232.421875	-43.203163
7233.398438	-42.496326
7234.375000	-42.316772
7235.351562	-42.708294
7236.328125	-42.100460
7237.304688	-41.963852
7238.281250	-41.871643
7239.257812	-43.032932
7240.234375	-42.559952
7241.210938	-43.110310
7242.187500	-43.564922
7243.164062	-43.328819
7244.140625	-42.784260
7245.117188	-43.312099
7246.093750	-43.129093
7247.070312	-42.171638
7248.046875	-42.550896
7249.023438	-43.227432
7250.000000	-42.220390
7250.976562	-42.664429
7251.953125	-42.170433
7252.929688	-42.055790
7253.906250	-41.919727
7254.882812	-43.013840
7255.859375	-44.573265
7256.835938	-43.265339
7257.812500	-41.787800
7258.789062	-41.644512
7259.765625	-42.568653
7260.742188	-43.273872
7261.718750	-42.763691
7262.695312	-42.311432
7263.671875	-42.107903
7264.648438	-42.500496
7265.625000	-42.316551
7266.601562	-42.475399
7267.578125	-42.640575
7268.554688	-42.157333
7269.531250	-43.616573
7270.507812	-44.250797
7271.484375	-42.320766
7272.460938	-42.463818
7273.437500	-42.648357
7274.414062	-44.191170
7275.390625	-42.628208
7276.367188	-42.240623
7277.343750	-42.626530
7278.320312	-43.576031
7279.296875	-43.117043
7280.273438	-42.450264
7281.250000	-41.663300
7282.226562	-42.700520
7283.203125	-43.290894
7284.179688	-44.597275
7285.156250	-43.527905
7286.132812	-43.381477
7287.109375	-42.640152
7288.085938	-43.012600
7289.062500	-42.914410
7290.039062	-43.405300
7291.015625	-43.637272
7291.992188	-43.296219
7292.968750	-43.215427
7293.945312	-43.456169
7294.921875	-43.957642
7295.898438	-44.271984
7296.875000	-43.541584
7297.851562	-42.579208
7298.828125	-42.599018
7299.804688	-43.131744
7300.781250	-41.997215
7301.757812	-42.213665
7302.734375	-41.889786
7303.710938	-42.291977
7304.687500	-41.784592
7305.664062	-43.815193
7306.640625	-44.165829
7307.617188	-41.712955
7308.593750	-43.009872
7309.570312	-43.347069
7310.546875	-42.404556
7311.523438	-42.850624
7312.500000	-42.058689
7313.476562	-42.154922
7314.453125	-42.844036
7315.429688	-42.582718
7316.406250	-41.629307
7317.382812	-42.493462
7318.359375	-42.643814
7319.335938	-42.785755
7320.312500	-44.022850
7321.289062	-42.681416
7322.265625	-41.638565
7323.242188	-43.160877
7324.218750	-43.381329
7325.195312	-42.927784
7326.171875	-42.180283
7327.148438	-42.113968
7328.125000	-43.124752
7329.101562	-44.255089
7330.078125	-42.996536
7331.054688	-43.160290
7332.031250	-42.382935
7333.007812	-43.647675
7333.984375	-43.455757
7334.960938	-42.089996
7335.937500	-43.079323
7336.914062	-41.435532
7337.890625	-41.260429
7338.867188	-40.966187
7339.843750	-41.361145
7340.820312	-43.309868
7341.796875	-42.175869
7342.773438	-42.864384
7343.750000	-43.610607
7344.726562	-42.943146
7345.703125	-43.313217
7346.679688	-42.666325
7347.656250	-42.972412
7348.632812	-42.835640
7349.609375	-42.621880
7350.585938	-43.947063
7351.562500	-43.012779
7352.539062	-42.419716
7353.515625	-42.082554
7354.492188	-43.647026
7355.468750	-41.229389
7356.445312	-43.938892
7357.421875	-42.118851
7358.398438	-41.715729
7359.375000	-43.040581
7360.351562	-42.559536
7361.328125	-44.539356
7362.304688	-42.742725
7363.281250	-42.676079
7364.257812	-43.142574
7365.234375	-43.223381
7366.210938	-41.892849
7367.187500	-41.907196
7368.164062	-43.120819
7369.140625	-43.207767
7370.117188	-41.748474
7371.093750	-42.656063
7372.070312	-42.071659
7373.046875	-41.879238
7374.023438	-42.312515
7375.000000	-42.822254
7375.976562	-41.925442
7376.953125	-42.144146
7377.929688	-42.254921
7378.906250	-43.537292
7379.882812	-43.113022
7380.859375	-41.886452
7381.835938	-42.548580
7382.812500	-44.169491
7383.789062	-42.952866
7384.765625	-43.112919
7385.742188	-42.397614
7386.718750	-44.128582
7387.695312	-44.059448
7388.671875	-43.208687
7389.648438	-42.335278
7390.625000	-43.552395
7391.601562	-43.693901
7392.578125	-42.148064
7393.554688	-43.105099
7394.531250	-43.382805
7395.507812	-42.742359
7396.484375	-43.552685
7397.460938	-42.841022
7398.437500	-42.507523
7399.414062	-43.310036
7400.390625	-42.745365
7401.367188	-42.381840
7402.343750	-42.880970
7403.320312	-43.185143
7404.296875	-42.408459
7405.273438	-42.774822
7406.250000	-43.323082
7407.226562	-42.057907
7408.203125	-41.597256
7409.179688	-44.549709
7410.156250	-43.904961
7411.132812	-42.508209
7412.109375	-43.356113
7413.085938	-43.158821
7414.062500	-42.642372
7415.039062	-43.713589
7416.015625	-43.035347
7416.992188	-42.761154
7417.968750	-42.508499
7418.945312	-43.444386
7419.921875	-42.713760
7420.898438	-44.430477
7421.875000	-42.476944
7422.851562	-41.583755
7423.828125	-42.942814
7424.804688	-43.552906
7425.781250	-43.145977
7426.757812	-42.865280
7427.734375	-43.646175
7428.710938	-43.385643
7429.687500	-43.228374
7430.664062	-43.082966
7431.640625	-42.049660
7432.617188	-42.422215
7433.593750	-43.237053
7434.570312	-42.705666
7435.546875	-42.516869
7436.523438	-43.151070
7437.500000	-43.875172
7438.476562	-43.210545
7439.453125	-43.010334
7440.429688	-42.478638
7441.406250	-44.192986
7442.382812	-42.698658
7443.359375	-42.943916
7444.335938	-43.549294
7445.312500	-42.279144
7446.289062	-42.304070
7447.265625	-41.774223
7448.242188	-43.789463
7449.218750	-42.486061
7450.195312	-44.061913
7451.171875	-44.132603
7452.148438	-43.462608
7453.125000	-44.059082
7454.101562	-43.107334
7455.078125	-43.862030
7456.054688	-41.667850
7457.031250	-42.751591
7458.007812	-43.636448
7458.984375	-42.246571
7459.960938	-42.122391
7460.937500	-42.647240
7461.914062	-42.120129
7462.890625	-42.443428
7463.867188	-42.263084
7464.843750	-42.633213
7465.820312	-42.003967
7466.796875	-43.276703
7467.773438	-42.946865
7468.750000	-43.021912
7469.726562	-43.436737
7470.703125	-43.629604
7471.679688	-44.001926
7472.656250	-43.325260
7473.632812	-41.359211
7474.609375	-42.105419
7475.585938	-43.482140
7476.562500	-43.791813
7477.539062	-43.016132
7478.515625	-43.595657
7479.492188	-42.966915
7480.468750	-42.730370
7481.445312	-43.744423
7482.421875	-41.999577
7483.398438	-42.640545
7484.375000	-42.897320
7485.351562	-42.391552
7486.328125	-42.679989
7487.304688	-41.002762
7488.281250	-43.193462
7489.257812	-42.427795
7490.234375	-42.772991
7491.210938	-42.422184
7492.187500	-43.051998
7493.164062	-42.531208
7494.140625	-42.500706
7495.117188	-41.876060
7496.093750	-42.555405
7497.070312	-42.833191
7498.046875	-44.223114
7499.023438	-42.827583
7500.000000	-42.166634
7500.976562	-43.139355
7501.953125	-43.072319
7502.929688	-43.539852
7503.906250	-42.943634
7504.882812	-42.423115
7505.859375	-42.417175
7506.835938	-43.194439
7507.812500	-43.205921
7508.789062	-42.628185
7509.765625	-41.659000
7510.742188	-43.216534
7511.718750	-42.666801
7512.695312	-41.851921
7513.671875	-43.452354
7514.648438	-44.721249
7515.625000	-42.489758
7516.601562	-42.998840
7517.578125	-42.836582
7518.554688	-43.810383
7519.531250	-42.820332
7520.507812	-42.316158
7521.484375	-43.391411
7522.460938	-42.919487
7523.437500	-43.013817
7524.414062	-41.592968
7525.390625	-41.650024
7526.367188	-42.627419
7527.343750	-42.102589
7528.320312	-42.156109
7529.296875	-43.188492
7530.273438	-42.930519
7531.250000	-43.120308
7532.226562	-43.441143
7533.203125	-42.106205
7534.179688	-44.067688
7535.156250	-41.548187
7536.132812	-42.850407
7537.109375	-43.020168
7538.085938	-42.115459
7539.062500	-42.469673
7540.039062	-45.055340
7541.015625	-42.447903
7541.992188	-42.005421
7542.968750	-43.527561
7543.945312	-43.897999
7544.921875	-43.902451
7545.898438	-42.979248
7546.875000	-42.223351
7547.851562	-42.778614
7548.828125	-41.820053
7549.804688	-43.322533
7550.781250	-41.950798
7551.757812	-41.769138
7552.734375	-41.717987
7553.710938	-42.055779
7554.687500	-43.707344
7555.664062	-43.627182
7556.640625	-44.684872
7557.617188	-42.453548
7558.593750	-43.315277
7559.570312	-43.716438
7560.546875	-43.046272
7561.523438	-43.705666
7562.500000	-42.973534
7563.476562	-45.022953
7564.453125	-42.904819
7565.429688	-42.999763
7566.406250	-43.728142
7567.382812	-43.365246
7568.359375	-43.491161
7569.335938	-42.143913
7570.312500	-42.552933
7571.289062	-43.395485
7572.265625	-43.137360
7573.242188	-42.129333
7574.218750	-41.545273
7575.195312	-42.586803
7576.171875	-42.626770
7577.148438	-42.569195
7578.125000	-42.146042
7579.101562	-43.752411
7580.078125	-42.766136
7581.054688	-42.865891
7582.031250	-42.305481
7583.007812	-42.265537
7583.984375	-41.296951
7584.960938	-42.701748
7585.937500	-43.844101
7586.914062	-42.878456
7587.890625	-43.700081
7588.867188	-43.747074
7589.843750	-41.626869
7590.820312	-41.974812
7591.796875	-42.676182
7592.773438	-43.131432
7593.750000	-43.008312
7594.726562	-41.708988
7595.703125	-42.275658
7596.679688	-43.267963
7597.656250	-43.162216
7598.632812	-42.271130
7599.609375	-42.990364
7600.585938	-44.037693
7601.562500	-44.423298
7602.539062	-43.569489
7603.515625	-44.075020
7604.492188	-41.376183
7605.468750	-42.857803
7606.445312	-43.147980
7607.421875	-44.239254
7608.398438	-41.394184
7609.375000	-42.681763
7610.351562	-41.751282
7611.328125	-42.873055
7612.304688	-42.679398
7613.281250	-42.466568
7614.257812	-43.490154
7615.234375	-42.856319
7616.210938	-43.083176
7617.187500	-41.978191
7618.164062	-42.014755
7619.140625	-43.685181
7620.117188	-44.612679
7621.093750	-43.765743
7622.070312	-42.899685
7623.046875	-41.868305
7624.023438	-42.324245
7625.000000	-42.637054
7625.976562	-42.443722
7626.953125	-42.728729
7627.929688	-43.942177
7628.906250	-42.792744
7629.882812	-42.614216
7630.859375	-43.139965
7631.835938	-43.175545
7632.812500	-41.907330
7633.789062	-42.292233
7634.765625	-42.337353
7635.742188	-42.740273
7636.718750	-43.554581
7637.695312	-44.587658
7638.671875	-42.539803
7639.648438	-41.810726
7640.625000	-42.896828
7641.601562	-41.683811
7642.578125	-42.740166
7643.554688	-44.007652
7644.531250	-42.492107
7645.507812	-42.411530
7646.484375	-43.581947
7647.460938	-42.555542
7648.437500	-41.960361
7649.414062	-43.226322
7650.390625	-43.210987
7651.367188	-43.701435
7652.343750	-43.879677
7653.320312	-42.230835
7654.296875	-42.167839
7655.273438	-43.102783
7656.250000	-43.092354
7657.226562	-43.129902
7658.203125	-43.342793
7659.179688	-42.704380
7660.156250	-43.049355
7661.132812	-42.882565
7662.109375	-43.040997
7663.085938	-42.879116
7664.062500	-42.601219
7665.039062	-42.641487
7666.015625	-42.468040
7666.992188	-42.669876
7667.968750	-43.274296
7668.945312	-42.982471
7669.921875	-42.495300
7670.898438	-42.736347
7671.875000	-42.949917
7672.851562	-43.280754
7673.828125	-43.547688
7674.804688	-42.132614
7675.781250	-42.645382
7676.757812	-43.344807
7677.734375	-42.690845
7678.710938	-42.079994
7679.687500	-43.852875
7680.664062	-42.519413
7681.640625	-43.950325
7682.617188	-43.461075
7683.593750	-41.896297
7684.570312	-42.640709
7685.546875	-41.843121
7686.523438	-43.776520
7687.500000	-43.197868
7688.476562	-43.750103
7689.453125	-44.226688
7690.429688	-43.697292
7691.406250	-44.032875
7692.382812	-41.398388
7693.359375	-42.425846
7694.335938	-42.929661
7695.312500	-42.432770
7696.289062	-42.108448
7697.265625	-41.672077
7698.242188	-42.776516
7699.218750	-43.065098
7700.195312	-41.947800
7701.171875	-43.183323
7702.148438	-42.616501
7703.125000	-42.883469
7704.101562	-43.131756
7705.078125	-43.673141
7706.054688	-43.192394
7707.031250	-42.309113
7708.007812	-42.497459
7708.984375	-42.800087
7709.960938	-43.681198
7710.937500	-42.633743
7711.914062	-44.046661
7712.890625	-43.206207
7713.867188	-43.765476
7714.843750	-42.749607
7715.820312	-41.667061
7716.796875	-42.659943
7717.773438	-42.068874
7718.750000	-42.329437
7719.726562	-42.767277
7720.703125	-42.819000
7721.679688	-42.762547
7722.656250	-42.790836
7723.632812	-43.693714
7724.609375	-42.892056
7725.585938	-44.430374
7726.562500	-42.913128
7727.539062	-43.076920
7728.515625	-43.452290
7729.492188	-43.135113
7730.468750	-43.297394
7731.445312	-42.339161
7732.421875	-42.695820
7733.398438	-43.684746
7734.375000	-44.206722
7735.351562	-42.908485
7736.328125	-42.667046
7737.304688	-43.576645
7738.281250	-43.565746
7739.257812	-43.000763
7740.234375	-42.241215
7741.210938	-41.570118
7742.187500	-42.997078
7743.164062	-43.592911
7744.140625	-43.762012
7745.117188	-44.327358
7746.093750	-44.099499
7747.070312	-43.390549
7748.046875	-41.222122
7749.023438	-41.806847
7750.000000	-42.933178
7750.976562	-41.249908
7751.953125	-41.566959
7752.929688	-42.826141
7753.906250	-42.493851
7754.882812	-42.633301
7755.859375	-42.731480
7756.835938	-42.355747
7757.812500	-43.735344
7758.789062	-43.953979
7759.765625	-43.232506
7760.742188	-43.244854
7761.718750	-42.796127
7762.695312	-42.653259
7763.671875	-42.648521
7764.648438	-42.196899
7765.625000	-44.328060
7766.601562	-42.898838
7767.578125	-42.769688
7768.554688	-42.631367
7769.531250	-43.498318
7770.507812	-42.819889
7771.484375	-42.881824
7772.460938	-43.088676
7773.437500	-43.122738
7774.414062	-41.774284
7775.390625	-43.687313
7776.367188	-43.951946
7777.343750	-43.032188
7778.320312	-41.803871
7779.296875	-44.765244
7780.273438	-41.844200
7781.250000	-42.407143
7782.226562	-42.797310
7783.203125	-42.172173
7784.179688	-42.415424
7785.156250	-43.187138
7786.132812	-42.714127
7787.109375	-43.441292
7788.085938	-42.952892
7789.062500	-43.353249
7790.039062	-42.799755
7791.015625	-43.381668
7791.992188	-42.991184
7792.968750	-43.427212
7793.945312	-43.903408
7794.921875	-43.073589
7795.898438	-43.455788
7796.875000	-41.821342
7797.851562	-41.716579
7798.828125	-42.675930
7799.804688	-44.184120
7800.781250	-44.076218
7801.757812	-43.350441
7802.734375	-42.871433
7803.710938	-42.117188
7804.687500	-42.810593
7805.664062	-42.565815
7806.640625	-43.620064
7807.617188	-42.603512
7808.593750	-43.534893
7809.570312	-42.018566
7810.546875	-43.407745
7811.523438	-42.867073
7812.500000	-43.082485
7813.476562	-41.959259
7814.453125	-41.835583
7815.429688	-43.239567
7816.406250	-43.071461
7817.382812	-43.357891
7818.359375	-42.201618
7819.335938	-42.776684
7820.312500	-44.020927
7821.289062	-43.062668
7822.265625	-42.419579
7823.242188	-43.575665
7824.218750	-43.286766
7825.195312	-41.995380
7826.171875	-43.644672
7827.148438	-44.531479
7828.125000	-43.166557
7829.101562	-44.049805
7830.078125	-43.611839
7831.054688	-43.653572
7832.031250	-42.280281
7833.007812	-43.653141
7833.984375	-42.360226
7834.960938	-41.428207
7835.937500	-42.744553
7836.914062	-43.479805
7837.890625	-42.309807
7838.867188	-43.083706
7839.843750	-42.272770
7840.820312	-42.235443
7841.796875	-43.357872
7842.773438	-42.979370
7843.750000	-42.340210
7844.726562	-43.505161
7845.703125	-42.791161
7846.679688	-43.335091
7847.656250	-42.738449
7848.632812	-42.761013
7849.609375	-43.014008
7850.585938	-42.435093
7851.562500	-42.977959
7852.539062	-42.310463
7853.515625	-43.408054
7854.492188	-42.748703
7855.468750	-43.322243
7856.445312	-42.428692
7857.421875	-43.112808
7858.398438	-42.952110
7859.375000	-43.383511
7860.351562	-42.633251
7861.328125	-42.245193
7862.304688	-41.411030
7863.281250	-42.756618
7864.257812	-43.533421
7865.234375	-44.024326
7866.210938	-43.913731
7867.187500	-43.391632
7868.164062	-42.471111
7869.140625	-42.797714
7870.117188	-43.272385
7871.093750	-43.158485
7872.070312	-42.816982
7873.046875	-43.254082
7874.023438	-43.418163
7875.000000	-44.694366
7875.976562	-43.383736
7876.953125	-43.050537
7877.929688	-42.706371
7878.906250	-42.920334
7879.882812	-43.102219
7880.859375	-42.912880
7881.835938	-42.242489
7882.812500	-43.332020
7883.789062	-42.653198
7884.765625	-42.759956
7885.742188	-42.154621
7886.718750	-42.967117
7887.695312	-42.769707
7888.671875	-43.399967
7889.648438	-44.728123
7890.625000	-42.464615
7891.601562	-42.197697
7892.578125	-41.813129
7893.554688	-44.014091
7894.531250	-43.090786
7895.507812	-41.797947
7896.484375	-41.307442
7897.460938	-43.409931
7898.437500	-44.537453
7899.414062	-43.420746
7900.390625	-43.393738
7901.367188	-42.788040
7902.343750	-45.562855
7903.320312	-43.036289
7904.296875	-42.085323
7905.273438	-42.995792
7906.250000	-41.503315
7907.226562	-43.950901
7908.203125	-43.479317
7909.179688	-44.055992
7910.156250	-42.756691
7911.132812	-43.847771
7912.109375	-42.537640
7913.085938	-42.979053
7914.062500	-43.548397
7915.039062	-41.715805
7916.015625	-41.911034
7916.992188	-42.193039
7917.968750	-43.268696
7918.945312	-43.903790
7919.921875	-42.959248
7920.898438	-43.177010
7921.875000	-43.310505
7922.851562	-43.325829
7923.828125	-43.419594
7924.804688	-43.411465
7925.781250	-43.458820
7926.757812	-44.036507
7927.734375	-43.569904
7928.710938	-42.380596
7929.687500	-42.799614
7930.664062	-43.003353
7931.640625	-41.930122
7932.617188	-42.653824
7933.593750	-42.423527
7934.570312	-42.075500
7935.546875	-42.915897
7936.523438	-42.960342
7937.500000	-42.804028
7938.476562	-42.603085
7939.453125	-44.685341
7940.429688	-42.426262
7941.406250	-41.861885
7942.382812	-42.354004
7943.359375	-41.690395
7944.335938	-42.814701
7945.312500	-42.978752
7946.289062	-43.198208
7947.265625	-43.683846
7948.242188	-42.875500
7949.218750	-43.864750
7950.195312	-43.646152
7951.171875	-43.112198
7952.148438	-43.095695
7953.125000	-42.808094
7954.101562	-43.793411
7955.078125	-42.809158
7956.054688	-43.791588
7957.031250	-43.048538
7958.007812	-42.366318
7958.984375	-43.401680
7959.960938	-42.760719
7960.937500	-43.224560
7961.914062	-44.719303
7962.890625	-42.795395
7963.867188	-41.473667
7964.843750	-43.261059
7965.820312	-43.326130
7966.796875	-42.410706
7967.773438	-42.372898
7968.750000	-42.542088
7969.726562	-42.615250
7970.703125	-44.287083
7971.679688	-43.228821
7972.656250	-42.417618
7973.632812	-42.282501
7974.609375	-42.223824
7975.585938	-43.113949
7976.562500	-43.756367
7977.539062	-42.736996
7978.515625	-43.213623
7979.492188	-41.955830
7980.468750	-41.997391
7981.445312	-43.300686
7982.421875	-43.100666
7983.398438	-43.212151
7984.375000	-43.623909
7985.351562	-43.507664
7986.328125	-42.753880
7987.304688	-42.720306
7988.281250	-42.514210
7989.257812	-42.183689
7990.234375	-42.894062
7991.210938	-42.433582
7992.187500	-41.557541
7993.164062	-43.364937
7994.140625	-42.393646
7995.117188	-41.275314
7996.093750	-43.235199
7997.070312	-42.540546
7998.046875	-43.080421
7999.023438	-42.747482
