Frequency (Hz)	Level (dB)
0.976562	-89.945564
1.953125	-89.900322
2.929688	-89.856995
3.906250	-89.651260
4.882812	-89.200027
5.859375	-88.819839
6.835938	-88.601868
7.812500	-88.988876
8.789062	-87.733994
9.765625	-87.608856
10.742188	-82.782181
11.718750	-79.272873
12.695312	-80.689896
13.671875	-82.751274
14.648438	-85.057648
15.625000	-86.106392
16.601562	-84.693848
17.578125	-85.015663
18.554688	-82.792664
19.531250	-83.177673
20.507812	-83.486198
21.484375	-83.356155
22.460938	-81.090782
23.437500	-81.492104
24.414062	-81.906609
25.390625	-81.774200
26.367188	-81.002098
27.343750	-80.405533
28.320312	-80.759315
29.296875	-80.671669
30.273438	-82.668953
31.250000	-82.961319
32.226562	-83.250923
33.203125	-83.317772
34.179688	-83.934242
35.156250	-82.795387
36.132812	-81.888741
37.109375	-82.553391
38.085938	-82.204475
39.062500	-82.616379
40.039062	-81.948761
41.015625	-83.390839
41.992188	-82.590958
42.968750	-82.071945
43.945312	-81.259735
44.921875	-81.833961
45.898438	-82.510887
46.875000	-82.410721
47.851562	-80.641312
48.828125	-81.188812
49.804688	-81.146904
50.781250	-80.789139
51.757812	-81.505951
52.734375	-81.263680
53.710938	-79.718811
54.687500	-79.682816
55.664062	-80.748520
56.640625	-78.562126
57.617188	-78.364044
58.593750	-78.823486
59.570312	-79.578545
60.546875	-77.605133
61.523438	-77.287064
62.500000	-78.888588
63.476562	-78.158188
64.453125	-81.326210
65.429688	-82.221725
66.406250	-81.894188
67.382812	-81.789474
68.359375	-81.252228
69.335938	-80.405983
70.312500	-81.726791
71.289062	-79.410004
72.265625	-80.209076
73.242188	-79.373314
74.218750	-78.871613
75.195312	-79.995979
76.171875	-80.466850
77.148438	-81.023666
78.125000	-80.119026
79.101562	-80.051765
80.078125	-81.671562
81.054688	-81.978943
82.031250	-81.365425
83.007812	-80.793228
83.984375	-80.085358
84.960938	-80.055595
85.937500	-78.798164
86.914062	-78.820206
87.890625	-79.960564
88.867188	-80.324074
89.843750	-80.209099
90.820312	-81.022346
91.796875	-80.260048
92.773438	-80.392693
93.750000	-80.352921
94.726562	-81.772659
95.703125	-80.850418
96.679688	-79.395897
97.656250	-80.642525
98.632812	-79.616577
99.609375	-79.612221
100.585938	-80.521042
101.562500	-79.343178
102.539062	-81.038689
103.515625	-78.963211
104.492188	-80.422867
105.468750	-80.023117
106.445312	-80.381210
107.421875	-79.360313
108.398438	-79.431816
109.375000	-78.068672
110.351562	-78.368187
111.328125	-80.151497
112.304688	-79.387276
113.281250	-77.486168
114.257812	-76.700729
115.234375	-76.948853
116.210938	-76.833755
117.187500	-76.807793
118.164062	-74.090302
119.140625	-74.332886
120.117188	-66.768944
121.093750	-71.937752
122.070312	-77.774467
123.046875	-77.735268
124.023438	-78.523285
125.000000	-77.974930
125.976562	-78.829185
126.953125	-78.712990
127.929688	-78.309090
128.906250	-77.697525
129.882812	-77.924675
130.859375	-77.476746
131.835938	-77.857399
132.812500	-77.789955
133.789062	-76.944725
134.765625	-77.805580
135.742188	-76.272507
136.718750	-77.891144
137.695312	-78.850479
138.671875	-76.653687
139.648438	-77.015343
140.625000	-77.281555
141.601562	-77.150414
142.578125	-76.006310
143.554688	-76.171318
144.531250	-75.775375
145.507812	-76.037369
146.484375	-75.968742
147.460938	-76.741249
148.437500	-76.019867
149.414062	-75.203964
150.390625	-75.743217
151.367188	-77.289299
152.343750	-75.772438
153.320312	-76.467751
154.296875	-75.601196
155.273438	-75.987373
156.250000	-74.653328
157.226562	-74.042053
158.203125	-74.362717
159.179688	-74.907288
160.156250	-73.998787
161.132812	-75.792206
162.109375	-73.831032
163.085938	-74.923180
164.062500	-75.236374
165.039062	-74.346260
166.015625	-73.910843
166.992188	-73.385445
167.968750	-74.103951
168.945312	-74.331032
169.921875	-74.132019
170.898438	-74.394608
171.875000	-74.016869
172.851562	-73.486389
173.828125	-74.214439
174.804688	-72.914528
175.781250	-73.390030
176.757812	-72.586731
177.734375	-73.063522
178.710938	-72.918663
179.687500	-71.755104
180.664062	-73.020607
181.640625	-73.855270
182.617188	-71.940186
183.593750	-72.200218
184.570312	-71.469482
185.546875	-71.213959
186.523438	-72.271896
187.500000	-72.397278
188.476562	-71.397240
189.453125	-70.813683
190.429688	-69.847191
191.406250	-70.910240
192.382812	-69.164024
193.359375	-69.738976
194.335938	-68.565857
195.312500	-67.592918
196.289062	-70.132668
197.265625	-69.313934
198.242188	-68.962074
199.218750	-67.462105
200.195312	-67.609230
201.171875	-67.808647
202.148438	-65.763062
203.125000	-66.307053
204.101562	-66.182404
205.078125	-66.786255
206.054688	-65.504356
207.031250	-65.183990
208.007812	-65.170166
208.984375	-65.835213
209.960938	-64.458412
210.937500	-64.671341
211.914062	-63.685665
212.890625	-63.182434
213.867188	-61.490498
214.843750	-62.784225
215.820312	-63.208763
216.796875	-61.868557
217.773438	-61.929646
218.750000	-63.175922
219.726562	-61.974136
220.703125	-61.231411
221.679688	-61.660858
222.656250	-62.740570
223.632812	-61.212063
224.609375	-61.380810
225.585938	-62.119022
226.562500	-62.294319
227.539062	-61.645912
228.515625	-63.431660
229.492188	-62.080410
230.468750	-62.529797
231.445312	-63.099983
232.421875	-62.670982
233.398438	-62.229263
234.375000	-62.567390
235.351562	-64.457275
236.328125	-64.650810
237.304688	-64.306816
238.281250	-67.248650
239.257812	-64.751747
240.234375	-64.858223
241.210938	-61.604511
242.187500	-59.784309
243.164062	-64.619942
244.140625	-65.362106
245.117188	-65.777824
246.093750	-67.063774
247.070312	-66.664635
248.046875	-67.403107
249.023438	-67.539940
250.000000	-66.829590
250.976562	-67.646263
251.953125	-67.839485
252.929688	-67.369682
253.906250	-67.815071
254.882812	-68.243988
255.859375	-66.702980
256.835938	-68.513199
257.812500	-68.925545
258.789062	-69.376755
259.765625	-70.729805
260.742188	-69.539856
261.718750	-70.276779
262.695312	-70.020149
263.671875	-70.360619
264.648438	-71.270813
265.625000	-69.254501
266.601562	-70.608810
267.578125	-69.598465
268.554688	-69.334549
269.531250	-72.627403
270.507812	-70.881630
271.484375	-70.395973
272.460938	-71.364311
273.437500	-72.384209
274.414062	-72.344070
275.390625	-71.232727
276.367188	-71.051384
277.343750	-71.021317
278.320312	-71.955437
279.296875	-72.708267
280.273438	-73.494446
281.250000	-72.659676
282.226562	-71.957054
283.203125	-72.497581
284.179688	-72.885696
285.156250	-72.137306
286.132812	-72.290596
287.109375	-72.449425
288.085938	-72.301720
289.062500	-72.998993
290.039062	-72.348717
291.015625	-72.966309
291.992188	-72.313904
292.968750	-72.246498
293.945312	-72.859016
294.921875	-73.411064
295.898438	-73.745522
296.875000	-73.806114
297.851562	-73.920326
298.828125	-74.615730
299.804688	-74.183128
300.781250	-74.224449
301.757812	-73.338097
302.734375	-73.153503
303.710938	-74.311996
304.687500	-75.443657
305.664062	-73.990417
306.640625	-72.804398
307.617188	-73.861931
308.593750	-74.486549
309.570312	-72.897430
310.546875	-74.935364
311.523438	-75.270683
312.500000	-73.823204
313.476562	-73.975410
314.453125	-73.200577
315.429688	-74.057907
316.406250	-73.599556
317.382812	-73.759033
318.359375	-73.803017
319.335938	-74.406883
320.312500	-75.357231
321.289062	-74.763496
322.265625	-74.569450
323.242188	-74.572510
324.218750	-73.596657
325.195312	-74.507858
326.171875	-74.724007
327.148438	-75.048210
328.125000	-75.090904
329.101562	-73.167038
330.078125	-74.147339
331.054688	-73.746796
332.031250	-73.684998
333.007812	-74.127457
333.984375	-74.058167
334.960938	-74.308044
335.937500	-74.413223
336.914062	-75.053818
337.890625	-73.742638
338.867188	-74.152260
339.843750	-74.869331
340.820312	-73.492462
341.796875	-74.816063
342.773438	-74.408417
343.750000	-73.008041
344.726562	-74.536255
345.703125	-74.355659
346.679688	-74.170158
347.656250	-74.007904
348.632812	-74.026352
349.609375	-75.168968
350.585938	-74.900978
351.562500	-72.375511
352.539062	-73.476456
353.515625	-72.992859
354.492188	-73.060600
355.468750	-73.153969
356.445312	-73.568893
357.421875	-74.151619
358.398438	-75.434891
359.375000	-73.323372
360.351562	-72.954544
361.328125	-74.476654
362.304688	-73.305351
363.281250	-73.264496
364.257812	-73.693314
365.234375	-73.840263
366.210938	-75.909103
367.187500	-73.390793
368.164062	-73.550980
369.140625	-72.711372
370.117188	-73.384109
371.093750	-72.903641
372.070312	-73.801231
373.046875	-72.001953
374.023438	-72.556122
375.000000	-72.857628
375.976562	-72.527344
376.953125	-72.981163
377.929688	-73.006195
378.906250	-72.823166
379.882812	-71.890854
380.859375	-72.565071
381.835938	-72.124947
382.812500	-71.331490
383.789062	-72.439903
384.765625	-71.912018
385.742188	-71.797218
386.718750	-71.626305
387.695312	-72.655312
388.671875	-72.363838
389.648438	-70.777161
390.625000	-70.041626
391.601562	-71.798767
392.578125	-72.659882
393.554688	-71.394432
394.531250	-71.465996
395.507812	-70.696732
396.484375	-70.176483
397.460938	-71.367493
398.437500	-71.000648
399.414062	-70.016342
400.390625	-70.698448
401.367188	-69.903984
402.343750	-69.497757
403.320312	-68.708160
404.296875	-68.567467
405.273438	-71.433258
406.250000	-69.813454
407.226562	-69.551590
408.203125	-69.226273
409.179688	-69.000198
410.156250	-69.690216
411.132812	-68.318268
412.109375	-68.128845
413.085938	-67.507164
414.062500	-69.113045
415.039062	-68.260056
416.015625	-67.022377
416.992188	-66.781479
417.968750	-67.846245
418.945312	-67.039734
419.921875	-68.072289
420.898438	-66.122620
421.875000	-66.444641
422.851562	-65.573036
423.828125	-65.832138
424.804688	-64.335930
425.781250	-64.574249
426.757812	-64.855400
427.734375	-65.047119
428.710938	-64.456543
429.687500	-63.760925
430.664062	-64.335464
431.640625	-61.613628
432.617188	-62.530762
433.593750	-62.510300
434.570312	-62.975117
435.546875	-61.129745
436.523438	-61.752907
437.500000	-59.958309
438.476562	-60.568584
439.453125	-60.567448
440.429688	-61.191074
441.406250	-60.095619
442.382812	-60.062843
443.359375	-59.422260
444.335938	-59.028973
445.312500	-60.240002
446.289062	-59.756779
447.265625	-57.925381
448.242188	-59.525936
449.218750	-58.316639
450.195312	-59.992786
451.171875	-58.900127
452.148438	-59.705570
453.125000	-60.689766
454.101562	-60.089397
455.078125	-59.615868
456.054688	-60.735622
457.031250	-61.517570
458.007812	-61.217430
458.984375	-61.463566
459.960938	-61.370533
460.937500	-61.202007
461.914062	-62.706802
462.890625	-62.318939
463.867188	-62.636402
464.843750	-63.057156
465.820312	-64.103172
466.796875	-63.338337
467.773438	-63.461578
468.750000	-64.333412
469.726562	-63.659954
470.703125	-64.283821
471.679688	-65.866402
472.656250	-64.458076
473.632812	-66.450531
474.609375	-66.577667
475.585938	-67.272217
476.562500	-66.274559
477.539062	-66.967186
478.515625	-67.106758
479.492188	-67.153107
480.468750	-67.400192
481.445312	-67.347839
482.421875	-68.239235
483.398438	-67.455086
484.375000	-68.219322
485.351562	-68.138634
486.328125	-68.771309
487.304688	-68.350800
488.281250	-69.701233
489.257812	-67.559120
490.234375	-68.207520
491.210938	-69.427963
492.187500	-70.147842
493.164062	-68.057129
494.140625	-69.517761
495.117188	-69.165649
496.093750	-69.028397
497.070312	-71.103050
498.046875	-70.425209
499.023438	-69.964256
500.000000	-72.106712
500.976562	-70.146454
501.953125	-69.273796
502.929688	-70.538361
503.906250	-70.522758
504.882812	-70.891983
505.859375	-70.697708
506.835938	-70.771454
507.812500	-70.175293
508.789062	-71.216385
509.765625	-72.569206
510.742188	-70.691750
511.718750	-71.298027
512.695312	-70.902443
513.671875	-72.393715
514.648438	-71.882050
515.625000	-71.079857
516.601562	-71.352333
517.578125	-72.593048
518.554688	-71.211975
519.531250	-71.857201
520.507812	-72.005013
521.484375	-71.407219
522.460938	-72.675064
523.437500	-73.008629
524.414062	-72.608093
525.390625	-72.695770
526.367188	-73.160965
527.343750	-73.123306
528.320312	-72.583153
529.296875	-72.391258
530.273438	-72.899712
531.250000	-72.405670
532.226562	-72.113251
533.203125	-71.178436
534.179688	-73.095673
535.156250	-72.839203
536.132812	-72.417892
537.109375	-72.813881
538.085938	-73.224869
539.062500	-72.230812
540.039062	-73.305786
541.015625	-73.530212
541.992188	-72.749321
542.968750	-72.039268
543.945312	-72.895943
544.921875	-72.928040
545.898438	-73.961243
546.875000	-73.577347
547.851562	-72.735329
548.828125	-72.956078
549.804688	-73.098976
550.781250	-73.018051
551.757812	-73.751686
552.734375	-72.090523
553.710938	-72.291878
554.687500	-71.934105
555.664062	-72.432892
556.640625	-73.043671
557.617188	-72.795372
558.593750	-72.069138
559.570312	-72.354774
560.546875	-74.758530
561.523438	-73.645020
562.500000	-72.778862
563.476562	-71.722725
564.453125	-72.420227
565.429688	-73.835068
566.406250	-73.575394
567.382812	-72.297958
568.359375	-72.238953
569.335938	-73.022087
570.312500	-72.355583
571.289062	-73.828522
572.265625	-72.946999
573.242188	-72.165970
574.218750	-74.393509
575.195312	-73.408913
576.171875	-73.008530
577.148438	-72.777321
578.125000	-72.710121
579.101562	-73.628052
580.078125	-72.626106
581.054688	-73.287758
582.031250	-73.183426
583.007812	-72.363029
583.984375	-72.681320
584.960938	-73.389030
585.937500	-73.036018
586.914062	-72.133873
587.890625	-72.274933
588.867188	-72.256592
589.843750	-71.868835
590.820312	-71.619766
591.796875	-73.415222
592.773438	-71.533661
593.750000	-71.442642
594.726562	-71.891991
595.703125	-72.761383
596.679688	-71.079865
597.656250	-71.094772
598.632812	-72.096581
599.609375	-70.865959
600.585938	-72.379005
601.562500	-71.464897
602.539062	-71.261253
603.515625	-71.359184
604.492188	-71.918884
605.468750	-70.554543
606.445312	-70.962601
607.421875	-70.348564
608.398438	-71.730804
609.375000	-71.317360
610.351562	-70.073021
611.328125	-70.750244
612.304688	-70.308105
613.281250	-70.870659
614.257812	-70.729195
615.234375	-69.943718
616.210938	-69.717262
617.187500	-69.330063
618.164062	-69.235886
619.140625	-70.945885
620.117188	-68.997894
621.093750	-69.159584
622.070312	-69.715744
623.046875	-69.030510
624.023438	-68.970459
625.000000	-68.941574
625.976562	-68.389465
626.953125	-67.627296
627.929688	-67.991852
628.906250	-69.341751
629.882812	-68.348839
630.859375	-68.576439
631.835938	-68.983192
632.812500	-66.862289
633.789062	-66.159195
634.765625	-68.611000
635.742188	-67.219337
636.718750	-66.218956
637.695312	-66.454170
638.671875	-65.567436
639.648438	-66.086555
640.625000	-65.981796
641.601562	-66.697479
642.578125	-65.280090
643.554688	-65.308105
644.531250	-65.101814
645.507812	-63.374622
646.484375	-64.546333
647.460938	-64.186653
648.437500	-64.078575
649.414062	-63.923668
650.390625	-63.563404
651.367188	-62.932762
652.343750	-61.964878
653.320312	-62.161983
654.296875	-62.451855
655.273438	-62.454845
656.250000	-61.700905
657.226562	-62.586109
658.203125	-61.563805
659.179688	-61.328583
660.156250	-60.687576
661.132812	-61.483433
662.109375	-60.490704
663.085938	-58.843849
664.062500	-59.530155
665.039062	-58.992664
666.015625	-59.124527
666.992188	-58.945217
667.968750	-59.260475
668.945312	-58.218056
669.921875	-58.332798
670.898438	-58.407688
671.875000	-58.343739
672.851562	-57.440128
673.828125	-57.796387
674.804688	-57.859409
675.781250	-59.911789
676.757812	-58.112934
677.734375	-58.885437
678.710938	-58.722221
679.687500	-59.471783
680.664062	-58.412113
681.640625	-57.376163
682.617188	-58.487431
683.593750	-59.102039
684.570312	-59.025379
685.546875	-59.068554
686.523438	-60.010502
687.500000	-61.385166
688.476562	-60.735577
689.453125	-60.719246
690.429688	-62.868916
691.406250	-62.520737
692.382812	-62.320625
693.359375	-62.347786
694.335938	-63.172791
695.312500	-63.868797
696.289062	-64.886612
697.265625	-63.054985
698.242188	-63.835583
699.218750	-65.698120
700.195312	-64.652794
701.171875	-63.904205
702.148438	-65.293167
703.125000	-64.553841
704.101562	-64.051857
705.078125	-64.937744
706.054688	-65.142731
707.031250	-65.824814
708.007812	-67.315231
708.984375	-66.561508
709.960938	-66.852173
710.937500	-65.647751
711.914062	-66.241592
712.890625	-68.018097
713.867188	-65.636040
714.843750	-67.037567
715.820312	-66.272919
716.796875	-67.080193
717.773438	-68.131187
718.750000	-67.612267
719.726562	-68.256447
720.703125	-68.475960
721.679688	-67.195953
722.656250	-68.496956
723.632812	-68.532211
724.609375	-68.591415
725.585938	-67.419243
726.562500	-67.450951
727.539062	-69.582123
728.515625	-68.746750
729.492188	-69.625427
730.468750	-69.023537
731.445312	-68.476456
732.421875	-69.935959
733.398438	-70.555687
734.375000	-68.917641
735.351562	-69.580811
736.328125	-70.055023
737.304688	-70.504272
738.281250	-69.147301
739.257812	-68.933777
740.234375	-69.095703
741.210938	-71.149261
742.187500	-68.838585
743.164062	-68.793457
744.140625	-70.833069
745.117188	-70.076553
746.093750	-70.275940
747.070312	-70.802078
748.046875	-70.215927
749.023438	-70.337814
750.000000	-71.023071
750.976562	-70.459488
751.953125	-70.455589
752.929688	-71.908905
753.906250	-70.721306
754.882812	-71.086426
755.859375	-71.710060
756.835938	-71.175766
757.812500	-70.914978
758.789062	-71.545441
759.765625	-70.670006
760.742188	-71.392242
761.718750	-71.817589
762.695312	-71.166016
763.671875	-70.919456
764.648438	-70.927185
765.625000	-71.236382
766.601562	-71.403831
767.578125	-71.009956
768.554688	-70.080025
769.531250	-71.334396
770.507812	-71.599846
771.484375	-71.619316
772.460938	-72.216888
773.437500	-71.315071
774.414062	-71.160347
775.390625	-70.033173
776.367188	-71.294678
777.343750	-71.762383
778.320312	-71.640594
779.296875	-71.602081
780.273438	-72.296196
781.250000	-72.837814
782.226562	-72.706505
783.203125	-72.012253
784.179688	-71.374016
785.156250	-71.344315
786.132812	-71.721092
787.109375	-71.229774
788.085938	-70.348564
789.062500	-71.784386
790.039062	-71.173439
791.015625	-72.037460
791.992188	-70.494423
792.968750	-71.062614
793.945312	-70.901825
794.921875	-71.309288
795.898438	-71.212723
796.875000	-70.900444
797.851562	-69.691589
798.828125	-69.890938
799.804688	-70.355042
800.781250	-70.755020
801.757812	-70.988808
802.734375	-71.389473
803.710938	-70.946739
804.687500	-70.753662
805.664062	-70.171631
806.640625	-71.387939
807.617188	-70.916565
808.593750	-70.152786
809.570312	-70.033607
810.546875	-69.995270
811.523438	-71.577179
812.500000	-70.498016
813.476562	-69.215538
814.453125	-69.969116
815.429688	-70.122612
816.406250	-69.478683
817.382812	-70.167633
818.359375	-69.496391
819.335938	-69.734421
820.312500	-69.074341
821.289062	-70.117134
822.265625	-70.710571
823.242188	-69.550659
824.218750	-70.180008
825.195312	-68.890709
826.171875	-69.187523
827.148438	-68.555656
828.125000	-70.396431
829.101562	-69.468689
830.078125	-69.236679
831.054688	-68.604965
832.031250	-69.135452
833.007812	-69.624329
833.984375	-68.699753
834.960938	-69.620667
835.937500	-69.813538
836.914062	-68.764175
837.890625	-69.797981
838.867188	-68.697365
839.843750	-69.315933
840.820312	-69.305565
841.796875	-68.363220
842.773438	-68.981224
843.750000	-68.281403
844.726562	-66.939964
845.703125	-68.281708
846.679688	-68.252434
847.656250	-67.081070
848.632812	-67.180016
849.609375	-66.882004
850.585938	-66.907578
851.562500	-67.224869
852.539062	-66.415520
853.515625	-66.579765
854.492188	-66.383720
855.468750	-66.350670
856.445312	-65.682495
857.421875	-64.988068
858.398438	-66.047005
859.375000	-65.522591
860.351562	-65.100250
861.328125	-65.166634
862.304688	-64.343086
863.281250	-65.581871
864.257812	-63.673252
865.234375	-64.721077
866.210938	-63.706799
867.187500	-64.229111
868.164062	-62.790966
869.140625	-62.356693
870.117188	-61.687546
871.093750	-61.774899
872.070312	-61.222092
873.046875	-61.760990
874.023438	-60.996712
875.000000	-61.445358
875.976562	-60.742599
876.953125	-60.361095
877.929688	-60.615166
878.906250	-62.310246
879.882812	-59.491817
880.859375	-58.236073
881.835938	-58.362614
882.812500	-58.005737
883.789062	-57.969059
884.765625	-58.998131
885.742188	-57.944633
886.718750	-56.079247
887.695312	-56.578243
888.671875	-56.324909
889.648438	-54.595482
890.625000	-56.908867
891.601562	-56.219410
892.578125	-56.506718
893.554688	-56.372723
894.531250	-55.870579
895.507812	-56.266228
896.484375	-56.803699
897.460938	-55.868752
898.437500	-56.680786
899.414062	-57.482109
900.390625	-56.255665
901.367188	-56.112820
902.343750	-56.373981
903.320312	-57.441772
904.296875	-58.668732
905.273438	-58.280403
906.250000	-57.528931
907.226562	-58.124611
908.203125	-59.144482
909.179688	-59.358196
910.156250	-60.214748
911.132812	-60.567528
912.109375	-58.690208
913.085938	-60.944260
914.062500	-61.136951
915.039062	-61.138836
916.015625	-62.742115
916.992188	-61.061005
917.968750	-61.510746
918.945312	-62.624973
919.921875	-62.619061
920.898438	-62.400215
921.875000	-63.133911
922.851562	-63.464149
923.828125	-62.407223
924.804688	-63.627495
925.781250	-63.879238
926.757812	-64.286217
927.734375	-64.993240
928.710938	-64.954865
929.687500	-64.431534
930.664062	-64.766808
931.640625	-64.856003
932.617188	-64.004234
933.593750	-65.557503
934.570312	-65.304810
935.546875	-64.005905
936.523438	-65.608551
937.500000	-65.759537
938.476562	-65.500008
939.453125	-66.026375
940.429688	-65.851608
941.406250	-65.723152
942.382812	-65.714417
943.359375	-67.172829
944.335938	-67.226006
945.312500	-66.527664
946.289062	-67.407013
947.265625	-67.073944
948.242188	-67.330238
949.218750	-66.100067
950.195312	-66.836624
951.171875	-68.369926
952.148438	-67.600945
953.125000	-66.768181
954.101562	-68.192657
955.078125	-67.709091
956.054688	-67.894318
957.031250	-67.609550
958.007812	-68.134399
958.984375	-67.744720
959.960938	-69.032799
960.937500	-68.707726
961.914062	-68.961609
962.890625	-68.650383
963.867188	-68.456276
964.843750	-68.122108
965.820312	-69.104057
966.796875	-69.130951
967.773438	-69.903687
968.750000	-69.497894
969.726562	-70.166557
970.703125	-68.535835
971.679688	-68.556206
972.656250	-68.634315
973.632812	-68.533493
974.609375	-68.257065
975.585938	-69.400826
976.562500	-69.239769
977.539062	-68.659721
978.515625	-68.818108
979.492188	-68.655495
980.468750	-69.553017
981.445312	-69.218872
982.421875	-69.801285
983.398438	-69.718483
984.375000	-69.758705
985.351562	-69.423050
986.328125	-69.526100
987.304688	-69.010704
988.281250	-69.984367
989.257812	-70.964294
990.234375	-70.810272
991.210938	-70.267487
992.187500	-69.533302
993.164062	-70.557053
994.140625	-69.796631
995.117188	-70.234871
996.093750	-70.159851
997.070312	-70.292580
998.046875	-70.662064
999.023438	-70.228477
1000.000000	-69.756775
1000.976562	-68.233444
1001.953125	-69.906639
1002.929688	-68.927055
1003.906250	-69.177528
1004.882812	-70.258965
1005.859375	-68.544563
1006.835938	-69.629646
1007.812500	-70.100266
1008.789062	-70.310730
1009.765625	-69.528069
1010.742188	-70.822266
1011.718750	-70.187325
1012.695312	-70.805054
1013.671875	-70.308411
1014.648438	-69.315788
1015.625000	-69.384987
1016.601562	-69.239273
1017.578125	-69.371483
1018.554688	-68.796249
1019.531250	-69.138412
1020.507812	-69.725166
1021.484375	-69.326599
1022.460938	-70.372787
1023.437500	-70.276955
1024.414062	-70.142677
1025.390625	-67.941681
1026.367188	-69.865486
1027.343750	-68.777191
1028.320312	-70.127975
1029.296875	-69.385193
1030.273438	-69.349472
1031.250000	-70.290115
1032.226562	-70.674698
1033.203125	-69.160378
1034.179688	-69.719803
1035.156250	-69.602135
1036.132812	-68.633987
1037.109375	-69.149117
1038.085938	-70.003670
1039.062500	-67.904831
1040.039062	-69.888153
1041.015625	-69.320267
1041.992188	-68.808495
1042.968750	-69.203033
1043.945312	-68.272003
1044.921875	-67.339653
1045.898438	-67.556908
1046.875000	-66.960068
1047.851562	-67.000565
1048.828125	-68.287888
1049.804688	-67.676178
1050.781250	-67.178749
1051.757812	-67.649048
1052.734375	-69.055214
1053.710938	-67.864441
1054.687500	-67.642830
1055.664062	-67.652237
1056.640625	-67.245239
1057.617188	-67.404488
1058.593750	-68.184494
1059.570312	-66.422966
1060.546875	-65.908577
1061.523438	-66.241386
1062.500000	-68.258659
1063.476562	-67.556549
1064.453125	-67.395119
1065.429688	-66.281746
1066.406250	-65.896790
1067.382812	-66.379951
1068.359375	-65.688995
1069.335938	-64.360062
1070.312500	-65.488655
1071.289062	-66.139771
1072.265625	-64.484131
1073.242188	-63.653404
1074.218750	-63.785965
1075.195312	-64.664467
1076.171875	-64.771965
1077.148438	-65.002914
1078.125000	-65.585014
1079.101562	-63.781555
1080.078125	-64.073257
1081.054688	-64.193977
1082.031250	-63.846973
1083.007812	-64.157661
1083.984375	-63.214790
1084.960938	-62.561203
1085.937500	-62.568974
1086.914062	-62.867733
1087.890625	-60.989769
1088.867188	-62.743336
1089.843750	-62.891048
1090.820312	-62.239502
1091.796875	-62.693104
1092.773438	-60.882851
1093.750000	-60.561756
1094.726562	-61.079872
1095.703125	-59.419636
1096.679688	-59.669384
1097.656250	-60.459415
1098.632812	-59.206165
1099.609375	-58.716850
1100.585938	-58.889400
1101.562500	-57.155525
1102.539062	-57.404854
1103.515625	-57.126156
1104.492188	-57.446972
1105.468750	-57.753620
1106.445312	-55.767002
1107.421875	-56.429943
1108.398438	-55.435482
1109.375000	-56.332756
1110.351562	-55.487602
1111.328125	-54.414310
1112.304688	-55.229244
1113.281250	-55.714569
1114.257812	-54.148045
1115.234375	-52.274723
1116.210938	-54.261711
1117.187500	-52.994102
1118.164062	-53.914543
1119.140625	-52.895588
1120.117188	-52.109070
1121.093750	-52.578896
1122.070312	-52.673328
1123.046875	-52.329033
1124.023438	-53.157047
1125.000000	-53.892223
1125.976562	-52.889534
1126.953125	-56.141132
1127.929688	-55.260590
1128.906250	-55.049679
1129.882812	-56.097267
1130.859375	-54.713207
1131.835938	-56.755421
1132.812500	-56.227093
1133.789062	-56.533741
1134.765625	-58.164608
1135.742188	-58.856972
1136.718750	-57.472565
1137.695312	-58.585197
1138.671875	-58.092632
1139.648438	-59.060364
1140.625000	-59.388580
1141.601562	-60.152924
1142.578125	-60.890514
1143.554688	-58.932354
1144.531250	-62.673969
1145.507812	-61.004738
1146.484375	-62.261528
1147.460938	-61.803955
1148.437500	-60.879219
1149.414062	-62.053688
1150.390625	-61.802330
1151.367188	-62.604446
1152.343750	-61.851055
1153.320312	-61.657928
1154.296875	-63.453930
1155.273438	-63.747616
1156.250000	-62.616791
1157.226562	-64.180786
1158.203125	-64.563583
1159.179688	-63.388378
1160.156250	-64.156395
1161.132812	-65.394081
1162.109375	-64.935738
1163.085938	-64.926155
1164.062500	-65.473450
1165.039062	-65.598007
1166.015625	-65.437302
1166.992188	-65.820343
1167.968750	-65.696228
1168.945312	-64.464775
1169.921875	-65.096504
1170.898438	-66.196236
1171.875000	-65.682800
1172.851562	-66.358330
1173.828125	-67.213989
1174.804688	-66.211769
1175.781250	-66.659943
1176.757812	-66.778214
1177.734375	-66.909760
1178.710938	-68.122047
1179.687500	-67.805382
1180.664062	-67.997787
1181.640625	-66.289238
1182.617188	-67.168823
1183.593750	-67.050926
1184.570312	-68.289017
1185.546875	-67.576828
1186.523438	-66.846985
1187.500000	-67.982796
1188.476562	-68.489365
1189.453125	-67.414749
1190.429688	-67.987976
1191.406250	-67.197372
1192.382812	-67.267822
1193.359375	-68.686897
1194.335938	-67.550140
1195.312500	-67.443909
1196.289062	-68.375259
1197.265625	-69.603745
1198.242188	-69.243584
1199.218750	-69.370232
1200.195312	-68.668282
1201.171875	-68.598564
1202.148438	-68.688751
1203.125000	-67.629089
1204.101562	-69.240952
1205.078125	-68.219337
1206.054688	-69.448372
1207.031250	-69.679344
1208.007812	-68.413551
1208.984375	-68.891937
1209.960938	-68.327621
1210.937500	-69.225769
1211.914062	-70.027420
1212.890625	-68.561028
1213.867188	-69.255203
1214.843750	-70.223442
1215.820312	-69.605202
1216.796875	-69.134575
1217.773438	-67.581688
1218.750000	-69.436989
1219.726562	-69.117531
1220.703125	-69.148514
1221.679688	-68.947662
1222.656250	-68.747063
1223.632812	-69.078903
1224.609375	-69.940735
1225.585938	-68.978302
1226.562500	-70.696800
1227.539062	-70.235405
1228.515625	-68.627396
1229.492188	-68.788918
1230.468750	-68.701408
1231.445312	-69.533531
1232.421875	-68.886032
1233.398438	-69.130814
1234.375000	-70.368156
1235.351562	-69.166908
1236.328125	-69.539574
1237.304688	-68.390144
1238.281250	-69.338936
1239.257812	-68.107292
1240.234375	-67.797028
1241.210938	-68.826653
1242.187500	-68.053368
1243.164062	-69.020454
1244.140625	-68.886986
1245.117188	-67.993088
1246.093750	-67.486893
1247.070312	-67.785820
1248.046875	-68.047218
1249.023438	-67.776100
1250.000000	-68.170113
1250.976562	-67.915848
1251.953125	-67.785202
1252.929688	-67.794632
1253.906250	-67.916298
1254.882812	-68.121269
1255.859375	-67.248657
1256.835938	-68.478256
1257.812500	-68.448380
1258.789062	-68.523491
1259.765625	-68.512871
1260.742188	-68.862900
1261.718750	-67.507759
1262.695312	-67.781319
1263.671875	-67.813019
1264.648438	-67.073265
1265.625000	-67.352180
1266.601562	-68.554192
1267.578125	-67.645058
1268.554688	-66.505074
1269.531250	-67.392029
1270.507812	-68.046692
1271.484375	-67.861023
1272.460938	-67.376839
1273.437500	-67.445000
1274.414062	-66.474571
1275.390625	-66.638084
1276.367188	-67.033844
1277.343750	-66.353363
1278.320312	-67.234642
1279.296875	-66.159386
1280.273438	-66.118889
1281.250000	-66.525322
1282.226562	-66.761917
1283.203125	-67.029762
1284.179688	-65.370529
1285.156250	-65.700409
1286.132812	-65.820557
1287.109375	-66.403824
1288.085938	-66.747360
1289.062500	-65.085976
1290.039062	-64.975037
1291.015625	-65.672112
1291.992188	-65.054947
1292.968750	-63.991119
1293.945312	-65.417839
1294.921875	-64.295212
1295.898438	-64.297211
1296.875000	-63.440170
1297.851562	-64.437561
1298.828125	-62.866821
1299.804688	-63.205349
1300.781250	-63.337929
1301.757812	-64.286995
1302.734375	-64.268562
1303.710938	-63.140350
1304.687500	-63.591572
1305.664062	-63.623039
1306.640625	-62.101624
1307.617188	-62.912319
1308.593750	-62.631393
1309.570312	-62.839027
1310.546875	-61.835152
1311.523438	-61.113445
1312.500000	-61.387592
1313.476562	-60.932911
1314.453125	-60.353512
1315.429688	-60.292938
1316.406250	-59.479248
1317.382812	-59.656048
1318.359375	-59.445717
1319.335938	-59.368351
1320.312500	-60.761814
1321.289062	-58.313423
1322.265625	-58.953251
1323.242188	-59.221107
1324.218750	-58.802814
1325.195312	-58.692970
1326.171875	-58.910000
1327.148438	-57.993698
1328.125000	-57.171482
1329.101562	-56.185612
1330.078125	-55.855515
1331.054688	-55.873871
1332.031250	-54.855183
1333.007812	-55.302887
1333.984375	-55.471714
1334.960938	-54.976425
1335.937500	-53.675438
1336.914062	-53.397732
1337.890625	-53.599609
1338.867188	-53.613205
1339.843750	-53.990589
1340.820312	-53.067192
1341.796875	-52.279068
1342.773438	-53.251438
1343.750000	-52.711445
1344.726562	-53.522404
1345.703125	-53.862198
1346.679688	-52.829060
1347.656250	-52.396683
1348.632812	-53.046970
1349.609375	-53.098061
1350.585938	-54.689510
1351.562500	-54.672104
1352.539062	-55.071648
1353.515625	-54.618938
1354.492188	-55.168530
1355.468750	-55.364803
1356.445312	-56.037167
1357.421875	-56.634541
1358.398438	-55.932510
1359.375000	-55.833515
1360.351562	-56.394859
1361.328125	-57.985321
1362.304688	-57.405598
1363.281250	-58.920422
1364.257812	-57.872860
1365.234375	-58.882187
1366.210938	-58.449974
1367.187500	-59.242599
1368.164062	-59.039524
1369.140625	-60.561672
1370.117188	-61.368523
1371.093750	-60.302639
1372.070312	-60.453056
1373.046875	-61.055344
1374.023438	-60.615772
1375.000000	-61.696270
1375.976562	-61.718426
1376.953125	-60.879642
1377.929688	-62.154663
1378.906250	-62.298798
1379.882812	-62.760662
1380.859375	-62.636395
1381.835938	-62.452572
1382.812500	-63.764748
1383.789062	-63.206978
1384.765625	-62.724693
1385.742188	-63.670467
1386.718750	-62.734066
1387.695312	-63.444721
1388.671875	-63.709045
1389.648438	-63.680981
1390.625000	-63.321682
1391.601562	-63.963356
1392.578125	-63.035297
1393.554688	-64.329628
1394.531250	-64.267296
1395.507812	-64.033035
1396.484375	-64.424858
1397.460938	-64.538521
1398.437500	-64.648239
1399.414062	-64.902168
1400.390625	-66.135094
1401.367188	-65.725121
1402.343750	-65.289055
1403.320312	-64.363426
1404.296875	-65.560036
1405.273438	-66.143852
1406.250000	-65.913948
1407.226562	-65.632690
1408.203125	-64.471588
1409.179688	-66.040085
1410.156250	-66.957123
1411.132812	-65.894455
1412.109375	-66.967033
1413.085938	-66.007782
1414.062500	-64.838898
1415.039062	-66.216682
1416.015625	-64.947342
1416.992188	-67.000580
1417.968750	-66.814758
1418.945312	-65.469391
1419.921875	-67.212593
1420.898438	-66.453522
1421.875000	-68.673538
1422.851562	-67.866600
1423.828125	-66.696159
1424.804688	-66.092102
1425.781250	-66.169830
1426.757812	-64.997253
1427.734375	-67.038513
1428.710938	-67.427025
1429.687500	-67.456657
1430.664062	-66.347801
1431.640625	-67.029022
1432.617188	-66.742180
1433.593750	-66.208931
1434.570312	-67.125908
1435.546875	-68.042496
1436.523438	-68.360550
1437.500000	-67.442436
1438.476562	-66.679337
1439.453125	-66.473999
1440.429688	-67.175125
1441.406250	-67.251106
1442.382812	-66.991173
1443.359375	-67.535210
1444.335938	-66.928688
1445.312500	-67.845932
1446.289062	-68.187698
1447.265625	-67.142494
1448.242188	-66.627327
1449.218750	-67.956566
1450.195312	-66.925514
1451.171875	-66.778244
1452.148438	-67.314117
1453.125000	-69.096527
1454.101562	-66.715843
1455.078125	-66.807335
1456.054688	-67.156609
1457.031250	-67.331848
1458.007812	-67.937515
1458.984375	-67.474205
1459.960938	-67.515503
1460.937500	-67.617958
1461.914062	-68.668938
1462.890625	-66.494019
1463.867188	-66.031403
1464.843750	-66.890442
1465.820312	-66.761612
1466.796875	-65.275909
1467.773438	-66.816353
1468.750000	-65.615952
1469.726562	-66.764229
1470.703125	-67.164841
1471.679688	-66.188454
1472.656250	-66.791992
1473.632812	-67.238083
1474.609375	-66.317673
1475.585938	-66.939034
1476.562500	-65.285637
1477.539062	-66.276894
1478.515625	-65.373428
1479.492188	-66.733498
1480.468750	-66.893692
1481.445312	-66.581551
1482.421875	-66.287178
1483.398438	-66.019958
1484.375000	-65.814331
1485.351562	-66.200050
1486.328125	-65.733833
1487.304688	-66.014748
1488.281250	-65.183922
1489.257812	-66.379700
1490.234375	-66.177429
1491.210938	-66.360176
1492.187500	-65.370605
1493.164062	-64.889351
1494.140625	-65.419060
1495.117188	-64.888069
1496.093750	-64.696968
1497.070312	-66.279434
1498.046875	-64.738441
1499.023438	-65.390953
1500.000000	-65.658310
1500.976562	-64.148033
1501.953125	-64.889603
1502.929688	-64.380745
1503.906250	-64.694244
1504.882812	-64.229584
1505.859375	-65.151749
1506.835938	-64.274918
1507.812500	-64.674789
1508.789062	-64.062958
1509.765625	-64.361771
1510.742188	-63.829102
1511.718750	-62.939419
1512.695312	-63.120300
1513.671875	-62.658970
1514.648438	-62.379192
1515.625000	-63.586758
1516.601562	-62.847290
1517.578125	-61.992237
1518.554688	-63.322666
1519.531250	-62.103870
1520.507812	-61.610710
1521.484375	-62.143314
1522.460938	-61.955593
1523.437500	-61.723049
1524.414062	-62.453697
1525.390625	-61.505165
1526.367188	-61.251694
1527.343750	-61.752998
1528.320312	-60.932690
1529.296875	-59.765659
1530.273438	-59.759277
1531.250000	-60.054195
1532.226562	-60.990902
1533.203125	-59.555943
1534.179688	-60.887650
1535.156250	-59.123043
1536.132812	-59.407600
1537.109375	-57.980495
1538.085938	-59.108345
1539.062500	-59.438744
1540.039062	-60.106636
1541.015625	-59.308811
1541.992188	-57.305450
1542.968750	-56.884872
1543.945312	-57.369301
1544.921875	-56.873203
1545.898438	-56.592091
1546.875000	-55.075146
1547.851562	-55.274845
1548.828125	-55.726036
1549.804688	-56.135651
1550.781250	-56.256680
1551.757812	-54.381760
1552.734375	-53.171524
1553.710938	-53.868240
1554.687500	-53.871872
1555.664062	-52.104721
1556.640625	-53.434059
1557.617188	-52.104870
1558.593750	-50.764809
1559.570312	-51.992020
1560.546875	-51.533577
1561.523438	-51.209141
1562.500000	-50.910999
1563.476562	-51.064125
1564.453125	-49.966267
1565.429688	-51.555435
1566.406250	-50.279663
1567.382812	-50.774876
1568.359375	-52.107124
1569.335938	-51.619865
1570.312500	-51.622555
1571.289062	-52.155510
1572.265625	-51.385849
1573.242188	-53.446018
1574.218750	-51.909000
1575.195312	-53.515800
1576.171875	-52.752594
1577.148438	-53.294281
1578.125000	-54.552505
1579.101562	-54.365543
1580.078125	-54.678253
1581.054688	-54.213200
1582.031250	-54.883011
1583.007812	-56.121159
1583.984375	-55.570312
1584.960938	-56.507442
1585.937500	-56.258629
1586.914062	-55.579819
1587.890625	-55.138103
1588.867188	-56.160801
1589.843750	-57.516731
1590.820312	-57.384369
1591.796875	-58.176922
1592.773438	-58.484688
1593.750000	-57.452614
1594.726562	-58.886047
1595.703125	-57.793026
1596.679688	-59.192612
1597.656250	-59.383106
1598.632812	-59.931091
1599.609375	-59.674122
1600.585938	-60.112549
1601.562500	-59.583366
1602.539062	-60.289425
1603.515625	-60.380630
1604.492188	-59.175907
1605.468750	-60.189625
1606.445312	-60.837341
1607.421875	-61.302002
1608.398438	-61.438305
1609.375000	-61.362438
1610.351562	-61.206333
1611.328125	-61.502178
1612.304688	-62.450169
1613.281250	-62.083874
1614.257812	-62.419998
1615.234375	-61.174244
1616.210938	-62.832802
1617.187500	-62.596382
1618.164062	-62.534317
1619.140625	-61.641964
1620.117188	-62.413639
1621.093750	-62.238976
1622.070312	-63.641228
1623.046875	-63.615250
1624.023438	-62.579052
1625.000000	-62.717087
1625.976562	-61.867939
1626.953125	-63.362549
1627.929688	-63.802334
1628.906250	-63.138882
1629.882812	-63.187431
1630.859375	-64.221046
1631.835938	-63.267685
1632.812500	-64.252838
1633.789062	-64.263367
1634.765625	-64.065964
1635.742188	-65.395195
1636.718750	-64.123474
1637.695312	-63.775745
1638.671875	-64.128540
1639.648438	-63.866295
1640.625000	-63.482052
1641.601562	-64.469696
1642.578125	-64.141434
1643.554688	-63.822704
1644.531250	-63.509979
1645.507812	-64.470146
1646.484375	-65.820938
1647.460938	-64.596657
1648.437500	-64.114700
1649.414062	-65.139709
1650.390625	-65.097420
1651.367188	-64.688812
1652.343750	-64.465172
1653.320312	-64.212982
1654.296875	-64.618202
1655.273438	-65.603912
1656.250000	-63.888245
1657.226562	-64.296730
1658.203125	-65.319763
1659.179688	-64.008171
1660.156250	-65.182785
1661.132812	-65.637413
1662.109375	-64.685280
1663.085938	-65.240402
1664.062500	-64.938477
1665.039062	-64.334961
1666.015625	-64.797691
1666.992188	-64.813286
1667.968750	-65.064178
1668.945312	-64.655045
1669.921875	-64.531837
1670.898438	-65.720169
1671.875000	-65.348122
1672.851562	-64.902649
1673.828125	-65.308716
1674.804688	-65.034744
1675.781250	-65.994713
1676.757812	-65.489639
1677.734375	-64.849152
1678.710938	-64.540092
1679.687500	-65.450325
1680.664062	-64.719330
1681.640625	-65.928642
1682.617188	-65.284691
1683.593750	-64.378822
1684.570312	-64.832649
1685.546875	-65.417274
1686.523438	-65.787659
1687.500000	-64.731873
1688.476562	-64.947311
1689.453125	-65.111816
1690.429688	-65.141235
1691.406250	-64.823883
1692.382812	-64.630875
1693.359375	-64.645943
1694.335938	-64.932503
1695.312500	-64.701111
1696.289062	-65.914680
1697.265625	-64.080956
1698.242188	-64.164757
1699.218750	-62.798260
1700.195312	-65.264809
1701.171875	-64.909302
1702.148438	-65.866692
1703.125000	-64.553024
1704.101562	-64.464378
1705.078125	-64.231308
1706.054688	-63.452217
1707.031250	-63.499374
1708.007812	-63.056519
1708.984375	-64.173988
1709.960938	-64.208298
1710.937500	-63.715714
1711.914062	-63.740208
1712.890625	-63.990986
1713.867188	-63.525864
1714.843750	-63.336056
1715.820312	-63.078503
1716.796875	-64.143341
1717.773438	-63.315079
1718.750000	-63.554092
1719.726562	-62.875694
1720.703125	-63.838375
1721.679688	-63.386772
1722.656250	-63.399937
1723.632812	-62.746017
1724.609375	-63.742310
1725.585938	-62.573956
1726.562500	-63.432022
1727.539062	-61.608700
1728.515625	-62.735897
1729.492188	-62.503117
1730.468750	-62.216125
1731.445312	-62.448669
1732.421875	-61.253445
1733.398438	-62.000416
1734.375000	-62.419281
1735.351562	-61.988083
1736.328125	-60.093773
1737.304688	-59.979130
1738.281250	-61.614571
1739.257812	-62.755234
1740.234375	-60.208199
1741.210938	-61.104832
1742.187500	-61.081066
1743.164062	-59.920364
1744.140625	-60.292278
1745.117188	-59.709633
1746.093750	-59.702625
1747.070312	-59.708000
1748.046875	-59.274181
1749.023438	-59.702202
1750.000000	-59.029121
1750.976562	-58.483635
1751.953125	-58.136574
1752.929688	-56.900486
1753.906250	-59.552650
1754.882812	-57.374077
1755.859375	-57.115067
1756.835938	-58.230366
1757.812500	-57.332058
1758.789062	-57.951069
1759.765625	-56.722851
1760.742188	-57.298397
1761.718750	-56.944836
1762.695312	-56.031250
1763.671875	-57.039463
1764.648438	-55.131832
1765.625000	-55.164631
1766.601562	-54.983879
1767.578125	-54.727024
1768.554688	-53.574398
1769.531250	-53.930588
1770.507812	-53.754128
1771.484375	-54.603752
1772.460938	-53.652927
1773.437500	-52.307125
1774.414062	-52.767944
1775.390625	-52.877449
1776.367188	-52.380566
1777.343750	-51.423634
1778.320312	-50.983067
1779.296875	-50.115631
1780.273438	-50.899384
1781.250000	-50.265900
1782.226562	-49.410820
1783.203125	-48.826939
1784.179688	-48.565498
1785.156250	-48.196980
1786.132812	-48.783627
1787.109375	-49.007404
1788.085938	-48.702641
1789.062500	-47.682098
1790.039062	-48.853195
1791.015625	-48.148254
1791.992188	-49.917980
1792.968750	-50.300659
1793.945312	-49.426178
1794.921875	-50.262619
1795.898438	-49.521675
1796.875000	-49.416859
1797.851562	-51.955376
1798.828125	-50.462410
1799.804688	-50.569695
1800.781250	-49.910805
1801.757812	-52.962669
1802.734375	-52.815357
1803.710938	-52.469952
1804.687500	-53.856598
1805.664062	-54.883137
1806.640625	-53.932835
1807.617188	-53.744228
1808.593750	-53.924019
1809.570312	-54.892845
1810.546875	-56.462257
1811.523438	-56.756985
1812.500000	-55.569149
1813.476562	-55.180267
1814.453125	-54.873817
1815.429688	-55.520527
1816.406250	-56.700096
1817.382812	-56.537678
1818.359375	-57.818985
1819.335938	-57.158157
1820.312500	-56.950111
1821.289062	-57.904324
1822.265625	-56.954872
1823.242188	-58.403965
1824.218750	-58.272804
1825.195312	-58.399109
1826.171875	-58.327679
1827.148438	-58.509697
1828.125000	-58.146965
1829.101562	-58.392937
1830.078125	-59.260891
1831.054688	-58.540218
1832.031250	-58.575287
1833.007812	-59.491634
1833.984375	-59.391720
1834.960938	-58.972870
1835.937500	-59.814884
1836.914062	-59.925781
1837.890625	-60.885468
1838.867188	-61.280796
1839.843750	-60.589973
1840.820312	-60.907410
1841.796875	-59.418205
1842.773438	-61.076252
1843.750000	-59.761707
1844.726562	-61.722446
1845.703125	-60.445103
1846.679688	-60.384953
1847.656250	-60.983635
1848.632812	-62.233887
1849.609375	-62.845825
1850.585938	-61.081848
1851.562500	-62.463577
1852.539062	-61.783848
1853.515625	-62.600979
1854.492188	-61.187897
1855.468750	-60.911491
1856.445312	-61.528706
1857.421875	-61.304520
1858.398438	-60.592014
1859.375000	-60.563835
1860.351562	-62.451775
1861.328125	-62.496521
1862.304688	-62.641445
1863.281250	-61.447643
1864.257812	-62.519302
1865.234375	-62.027100
1866.210938	-61.800823
1867.187500	-63.179924
1868.164062	-63.756313
1869.140625	-63.286060
1870.117188	-62.541645
1871.093750	-63.273357
1872.070312	-63.112347
1873.046875	-62.091213
1874.023438	-62.410641
1875.000000	-62.402420
1875.976562	-62.832542
1876.953125	-63.540134
1877.929688	-62.726635
1878.906250	-62.593521
1879.882812	-63.647160
1880.859375	-62.802700
1881.835938	-62.912758
1882.812500	-63.263451
1883.789062	-64.208649
1884.765625	-64.890053
1885.742188	-62.794933
1886.718750	-62.211945
1887.695312	-63.486923
1888.671875	-62.381733
1889.648438	-62.153484
1890.625000	-62.437672
1891.601562	-62.166386
1892.578125	-62.750183
1893.554688	-62.287045
1894.531250	-63.035553
1895.507812	-63.238747
1896.484375	-62.639523
1897.460938	-63.101276
1898.437500	-63.571838
1899.414062	-62.303616
1900.390625	-62.777882
1901.367188	-65.113274
1902.343750	-62.380180
1903.320312	-63.970959
1904.296875	-62.734215
1905.273438	-61.736557
1906.250000	-61.960976
1907.226562	-64.184677
1908.203125	-61.797573
1909.179688	-62.168388
1910.156250	-62.000542
1911.132812	-62.035439
1912.109375	-63.031876
1913.085938	-61.597301
1914.062500	-62.928459
1915.039062	-62.820023
1916.015625	-63.147388
1916.992188	-61.886330
1917.968750	-62.809788
1918.945312	-63.364563
1919.921875	-61.639309
1920.898438	-61.657413
1921.875000	-62.291187
1922.851562	-63.271233
1923.828125	-61.521336
1924.804688	-62.398746
1925.781250	-62.947838
1926.757812	-62.443768
1927.734375	-60.649330
1928.710938	-61.827984
1929.687500	-62.451122
1930.664062	-62.887928
1931.640625	-61.853371
1932.617188	-63.149841
1933.593750	-62.956120
1934.570312	-60.711018
1935.546875	-61.643345
1936.523438	-61.700089
1937.500000	-61.947300
1938.476562	-61.481941
1939.453125	-60.972713
1940.429688	-61.368935
1941.406250	-60.994709
1942.382812	-61.409206
1943.359375	-62.033218
1944.335938	-60.013496
1945.312500	-60.516609
1946.289062	-60.219498
1947.265625	-61.119156
1948.242188	-60.257484
1949.218750	-59.762569
1950.195312	-61.249546
1951.171875	-61.204750
1952.148438	-60.896358
1953.125000	-60.527828
1954.101562	-59.345596
1955.078125	-59.791260
1956.054688	-59.437050
1957.031250	-59.126827
1958.007812	-60.443645
1958.984375	-58.523399
1959.960938	-58.973370
1960.937500	-58.452866
1961.914062	-59.679482
1962.890625	-59.174953
1963.867188	-58.865753
1964.843750	-57.757641
1965.820312	-57.328205
1966.796875	-58.118679
1967.773438	-58.068336
1968.750000	-56.949020
1969.726562	-57.470551
1970.703125	-56.809402
1971.679688	-57.290897
1972.656250	-56.732193
1973.632812	-56.270718
1974.609375	-56.032925
1975.585938	-55.663422
1976.562500	-56.000336
1977.539062	-54.645172
1978.515625	-56.353741
1979.492188	-55.977222
1980.468750	-55.536335
1981.445312	-54.518585
1982.421875	-54.560936
1983.398438	-55.696766
1984.375000	-55.526459
1985.351562	-54.473267
1986.328125	-53.844772
1987.304688	-53.028572
1988.281250	-53.568832
1989.257812	-53.012970
1990.234375	-52.709595
1991.210938	-52.570908
1992.187500	-52.304447
1993.164062	-53.710255
1994.140625	-52.015034
1995.117188	-50.784920
1996.093750	-50.164898
1997.070312	-51.712353
1998.046875	-49.301437
1999.023438	-50.519741
2000.000000	-51.219639
2000.976562	-49.043755
2001.953125	-48.200390
2002.929688	-47.706585
2003.906250	-48.134769
2004.882812	-47.524975
2005.859375	-47.691933
2006.835938	-47.943539
2007.812500	-47.650772
2008.789062	-47.209152
2009.765625	-47.317863
2010.742188	-46.816780
2011.718750	-47.214920
2012.695312	-47.316647
2013.671875	-47.598351
2014.648438	-47.115559
2015.625000	-48.019958
2016.601562	-47.712234
2017.578125	-48.528252
2018.554688	-47.976284
2019.531250	-49.179668
2020.507812	-48.326225
2021.484375	-48.409451
2022.460938	-49.622017
2023.437500	-49.495708
2024.414062	-49.269989
2025.390625	-49.711472
2026.367188	-50.645447
2027.343750	-50.901325
2028.320312	-51.042072
2029.296875	-51.677185
2030.273438	-51.824631
2031.250000	-52.332516
2032.226562	-53.015560
2033.203125	-52.699760
2034.179688	-52.626175
2035.156250	-53.552448
2036.132812	-52.025116
2037.109375	-53.571583
2038.085938	-53.547947
2039.062500	-54.852562
2040.039062	-54.433262
2041.015625	-53.236771
2041.992188	-55.245361
2042.968750	-55.370777
2043.945312	-54.884075
2044.921875	-55.215889
2045.898438	-54.569958
2046.875000	-55.653599
2047.851562	-56.031429
2048.828125	-55.763348
2049.804688	-56.808567
2050.781250	-56.465187
2051.757812	-56.469067
2052.734375	-55.851120
2053.710938	-55.975815
2054.687500	-57.241287
2055.664062	-57.899094
2056.640625	-55.673351
2057.617188	-55.950821
2058.593750	-56.817234
2059.570312	-58.042522
2060.546875	-58.056732
2061.523438	-57.528446
2062.500000	-56.270359
2063.476562	-58.340019
2064.453125	-58.596539
2065.429688	-58.661469
2066.406250	-59.853981
2067.382812	-58.254971
2068.359375	-58.051704
2069.335938	-58.819336
2070.312500	-58.578579
2071.289062	-58.943150
2072.265625	-58.674625
2073.242188	-57.388817
2074.218750	-58.649086
2075.195312	-58.822487
2076.171875	-58.711533
2077.148438	-60.845291
2078.125000	-59.108402
2079.101562	-60.071720
2080.078125	-59.489037
2081.054688	-61.084045
2082.031250	-58.705009
2083.007812	-59.922157
2083.984375	-59.874126
2084.960938	-60.015518
2085.937500	-60.626354
2086.914062	-60.220440
2087.890625	-59.557545
2088.867188	-59.050991
2089.843750	-60.049084
2090.820312	-59.280487
2091.796875	-58.830990
2092.773438	-59.528427
2093.750000	-60.600937
2094.726562	-61.000706
2095.703125	-60.271706
2096.679688	-59.734451
2097.656250	-60.137627
2098.632812	-59.446606
2099.609375	-59.812176
2100.585938	-60.782440
2101.562500	-60.494652
2102.539062	-59.373711
2103.515625	-59.736729
2104.492188	-60.317146
2105.468750	-60.652649
2106.445312	-60.926670
2107.421875	-60.600655
2108.398438	-60.554005
2109.375000	-60.631874
2110.351562	-59.965569
2111.328125	-60.545582
2112.304688	-60.202431
2113.281250	-60.889576
2114.257812	-60.614712
2115.234375	-60.327305
2116.210938	-59.802708
2117.187500	-61.990261
2118.164062	-61.232201
2119.140625	-59.485222
2120.117188	-60.017174
2121.093750	-59.473465
2122.070312	-60.612881
2123.046875	-60.251232
2124.023438	-59.190117
2125.000000	-60.034885
2125.976562	-60.099274
2126.953125	-61.016937
2127.929688	-60.862556
2128.906250	-59.210361
2129.882812	-60.851639
2130.859375	-61.372177
2131.835938	-59.755966
2132.812500	-59.561138
2133.789062	-62.308693
2134.765625	-61.678253
2135.742188	-58.401005
2136.718750	-60.338749
2137.695312	-60.514099
2138.671875	-60.719482
2139.648438	-61.791920
2140.625000	-59.977352
2141.601562	-60.539177
2142.578125	-60.144524
2143.554688	-60.497227
2144.531250	-60.586002
2145.507812	-60.699284
2146.484375	-58.949020
2147.460938	-59.009087
2148.437500	-59.210510
2149.414062	-59.889214
2150.390625	-58.388496
2151.367188	-59.773590
2152.343750	-59.932617
2153.320312	-59.136497
2154.296875	-60.245117
2155.273438	-58.737984
2156.250000	-59.284714
2157.226562	-59.299839
2158.203125	-58.992359
2159.179688	-59.322502
2160.156250	-59.798615
2161.132812	-59.726032
2162.109375	-57.653542
2163.085938	-59.023285
2164.062500	-58.076195
2165.039062	-58.200581
2166.015625	-58.777252
2166.992188	-58.076725
2167.968750	-57.797153
2168.945312	-57.596977
2169.921875	-57.528530
2170.898438	-57.923588
2171.875000	-56.408455
2172.851562	-57.481464
2173.828125	-56.353947
2174.804688	-57.297016
2175.781250	-58.568619
2176.757812	-58.305553
2177.734375	-56.607693
2178.710938	-57.582211
2179.687500	-56.602600
2180.664062	-58.776505
2181.640625	-57.838081
2182.617188	-57.106987
2183.593750	-55.331581
2184.570312	-55.521469
2185.546875	-56.280590
2186.523438	-56.154572
2187.500000	-56.180649
2188.476562	-54.823647
2189.453125	-54.776924
2190.429688	-55.621307
2191.406250	-56.167408
2192.382812	-55.815308
2193.359375	-54.563663
2194.335938	-55.409561
2195.312500	-55.562641
2196.289062	-54.028374
2197.265625	-53.327679
2198.242188	-53.341408
2199.218750	-52.307407
2200.195312	-53.091232
2201.171875	-52.248310
2202.148438	-53.813000
2203.125000	-52.595573
2204.101562	-51.664104
2205.078125	-52.336739
2206.054688	-51.981876
2207.031250	-52.815758
2208.007812	-52.443504
2208.984375	-50.549488
2209.960938	-50.267422
2210.937500	-50.154018
2211.914062	-50.528107
2212.890625	-50.172184
2213.867188	-48.845581
2214.843750	-49.941772
2215.820312	-48.971886
2216.796875	-48.310390
2217.773438	-48.068256
2218.750000	-47.602409
2219.726562	-47.420414
2220.703125	-47.304451
2221.679688	-47.131195
2222.656250	-45.885792
2223.632812	-45.650089
2224.609375	-46.448238
2225.585938	-46.769768
2226.562500	-44.752377
2227.539062	-44.965538
2228.515625	-44.936584
2229.492188	-44.315022
2230.468750	-44.465565
2231.445312	-45.162086
2232.421875	-44.809574
2233.398438	-43.372765
2234.375000	-44.320728
2235.351562	-44.758137
2236.328125	-45.113770
2237.304688	-44.484722
2238.281250	-44.765465
2239.257812	-44.881744
2240.234375	-45.428974
2241.210938	-45.231606
2242.187500	-46.319530
2243.164062	-45.558331
2244.140625	-46.459080
2245.117188	-46.867966
2246.093750	-47.307938
2247.070312	-46.592144
2248.046875	-48.485413
2249.023438	-48.716244
2250.000000	-47.275501
2250.976562	-46.980900
2251.953125	-48.640598
2252.929688	-49.378532
2253.906250	-48.735508
2254.882812	-51.017132
2255.859375	-49.607468
2256.835938	-49.742008
2257.812500	-50.359756
2258.789062	-51.312828
2259.765625	-50.648949
2260.742188	-51.968967
2261.718750	-51.260361
2262.695312	-51.738716
2263.671875	-51.465641
2264.648438	-51.455101
2265.625000	-51.682789
2266.601562	-52.397968
2267.578125	-51.361221
2268.554688	-52.557026
2269.531250	-52.413792
2270.507812	-52.310577
2271.484375	-53.842583
2272.460938	-53.467701
2273.437500	-53.258774
2274.414062	-53.737305
2275.390625	-54.091595
2276.367188	-54.618229
2277.343750	-54.589645
2278.320312	-53.876331
2279.296875	-54.367668
2280.273438	-54.634830
2281.250000	-54.985146
2282.226562	-56.085209
2283.203125	-54.986534
2284.179688	-55.002480
2285.156250	-57.030460
2286.132812	-55.522739
2287.109375	-56.343777
2288.085938	-55.033432
2289.062500	-54.978233
2290.039062	-55.852489
2291.015625	-56.802814
2291.992188	-54.967800
2292.968750	-54.785435
2293.945312	-55.966583
2294.921875	-56.730076
2295.898438	-56.360039
2296.875000	-57.156975
2297.851562	-55.747978
2298.828125	-57.964249
2299.804688	-56.810654
2300.781250	-56.433067
2301.757812	-56.310036
2302.734375	-56.614357
2303.710938	-56.337242
2304.687500	-55.905102
2305.664062	-57.560074
2306.640625	-56.831825
2307.617188	-56.974842
2308.593750	-56.865261
2309.570312	-56.895638
2310.546875	-56.112789
2311.523438	-57.794918
2312.500000	-56.721588
2313.476562	-57.257980
2314.453125	-57.304783
2315.429688	-57.137192
2316.406250	-57.250309
2317.382812	-58.809761
2318.359375	-58.381138
2319.335938	-58.067478
2320.312500	-57.929874
2321.289062	-57.463516
2322.265625	-56.488132
2323.242188	-58.066853
2324.218750	-57.407043
2325.195312	-58.488571
2326.171875	-57.389355
2327.148438	-57.196510
2328.125000	-56.891979
2329.101562	-57.516712
2330.078125	-57.019115
2331.054688	-56.632362
2332.031250	-56.756100
2333.007812	-58.578766
2333.984375	-58.103519
2334.960938	-58.198006
2335.937500	-57.618450
2336.914062	-58.051785
2337.890625	-58.503536
2338.867188	-58.371166
2339.843750	-57.102898
2340.820312	-57.470119
2341.796875	-57.665562
2342.773438	-57.887463
2343.750000	-58.673759
2344.726562	-57.725258
2345.703125	-57.645718
2346.679688	-55.817379
2347.656250	-57.506222
2348.632812	-59.698174
2349.609375	-57.543083
2350.585938	-58.267441
2351.562500	-57.879719
2352.539062	-56.795837
2353.515625	-58.729290
2354.492188	-57.303631
2355.468750	-57.812065
2356.445312	-57.026424
2357.421875	-57.557503
2358.398438	-58.287121
2359.375000	-57.695004
2360.351562	-58.091339
2361.328125	-58.042561
2362.304688	-57.952282
2363.281250	-57.708603
2364.257812	-57.145317
2365.234375	-56.396660
2366.210938	-57.029526
2367.187500	-57.250271
2368.164062	-57.444088
2369.140625	-57.374454
2370.117188	-57.094315
2371.093750	-56.236145
2372.070312	-57.030888
2373.046875	-57.960758
2374.023438	-56.683712
2375.000000	-56.797543
2375.976562	-56.416939
2376.953125	-57.718819
2377.929688	-57.108852
2378.906250	-56.572334
2379.882812	-57.919987
2380.859375	-56.624393
2381.835938	-57.117035
2382.812500	-56.447189
2383.789062	-57.024620
2384.765625	-56.696079
2385.742188	-56.141212
2386.718750	-55.713074
2387.695312	-56.140499
2388.671875	-56.924332
2389.648438	-56.063118
2390.625000	-56.898060
2391.601562	-54.784103
2392.578125	-54.777611
2393.554688	-54.855873
2394.531250	-53.928146
2395.507812	-55.501091
2396.484375	-55.154984
2397.460938	-53.889023
2398.437500	-54.519337
2399.414062	-55.665043
2400.390625	-54.274693
2401.367188	-54.020908
2402.343750	-54.043049
2403.320312	-53.942223
2404.296875	-52.499512
2405.273438	-53.069206
2406.250000	-55.460049
2407.226562	-52.866554
2408.203125	-54.581947
2409.179688	-54.338345
2410.156250	-53.639896
2411.132812	-53.053101
2412.109375	-51.924706
2413.085938	-52.531349
2414.062500	-51.733002
2415.039062	-51.956108
2416.015625	-50.849285
2416.992188	-51.455223
2417.968750	-50.721172
2418.945312	-50.703892
2419.921875	-51.754341
2420.898438	-50.523861
2421.875000	-51.247742
2422.851562	-50.896255
2423.828125	-50.509159
2424.804688	-50.477005
2425.781250	-50.182903
2426.757812	-51.123737
2427.734375	-49.111057
2428.710938	-50.648109
2429.687500	-48.447491
2430.664062	-48.880318
2431.640625	-49.008499
2432.617188	-48.342152
2433.593750	-48.673759
2434.570312	-48.463097
2435.546875	-48.792393
2436.523438	-48.391766
2437.500000	-48.317776
2438.476562	-46.355480
2439.453125	-46.065357
2440.429688	-48.380402
2441.406250	-46.504799
2442.382812	-46.632458
2443.359375	-46.565201
2444.335938	-45.092220
2445.312500	-45.265602
2446.289062	-45.139847
2447.265625	-44.593475
2448.242188	-44.681137
2449.218750	-44.215591
2450.195312	-42.933578
2451.171875	-42.606476
2452.148438	-42.455273
2453.125000	-42.688820
2454.101562	-42.818584
2455.078125	-42.414852
2456.054688	-44.393738
2457.031250	-42.296207
2458.007812	-42.013680
2458.984375	-43.714062
2459.960938	-42.817940
2460.937500	-43.411175
2461.914062	-42.803692
2462.890625	-43.408157
2463.867188	-42.439754
2464.843750	-42.073261
2465.820312	-44.748329
2466.796875	-43.835663
2467.773438	-45.455879
2468.750000	-45.905960
2469.726562	-45.984261
2470.703125	-46.259899
2471.679688	-46.263981
2472.656250	-46.588810
2473.632812	-44.773884
2474.609375	-46.987961
2475.585938	-47.221798
2476.562500	-46.942120
2477.539062	-48.663639
2478.515625	-47.810970
2479.492188	-47.576096
2480.468750	-47.995113
2481.445312	-48.703812
2482.421875	-48.161911
2483.398438	-48.705517
2484.375000	-49.208191
2485.351562	-49.772388
2486.328125	-48.274845
2487.304688	-48.178005
2488.281250	-50.136360
2489.257812	-49.833168
2490.234375	-49.098133
2491.210938	-50.582321
2492.187500	-51.066116
2493.164062	-50.545498
2494.140625	-49.799564
2495.117188	-50.955437
2496.093750	-51.730190
2497.070312	-50.989189
2498.046875	-51.508675
2499.023438	-51.226803
2500.000000	-51.818535
2500.976562	-51.303806
2501.953125	-51.813732
2502.929688	-51.502045
2503.906250	-53.439114
2504.882812	-51.460468
2505.859375	-52.759121
2506.835938	-53.622509
2507.812500	-52.460064
2508.789062	-53.844536
2509.765625	-53.974731
2510.742188	-53.472927
2511.718750	-52.766788
2512.695312	-53.173153
2513.671875	-53.650265
2514.648438	-53.501358
2515.625000	-54.432049
2516.601562	-53.218708
2517.578125	-53.069241
2518.554688	-54.022427
2519.531250	-54.609001
2520.507812	-53.835915
2521.484375	-54.403625
2522.460938	-54.220066
2523.437500	-54.454174
2524.414062	-54.570984
2525.390625	-54.595253
2526.367188	-54.143887
2527.343750	-54.127186
2528.320312	-53.909908
2529.296875	-54.152065
2530.273438	-54.283676
2531.250000	-53.860607
2532.226562	-54.143520
2533.203125	-55.324532
2534.179688	-55.603825
2535.156250	-56.468559
2536.132812	-55.907158
2537.109375	-55.766247
2538.085938	-54.889862
2539.062500	-54.981956
2540.039062	-56.239101
2541.015625	-54.122139
2541.992188	-55.329704
2542.968750	-54.688042
2543.945312	-55.226105
2544.921875	-55.378147
2545.898438	-55.768631
2546.875000	-54.630623
2547.851562	-54.367138
2548.828125	-55.820747
2549.804688	-54.702183
2550.781250	-54.562069
2551.757812	-55.285305
2552.734375	-54.676338
2553.710938	-53.784763
2554.687500	-56.015797
2555.664062	-57.620480
2556.640625	-55.718105
2557.617188	-55.276531
2558.593750	-54.851402
2559.570312	-55.217648
2560.546875	-55.322037
2561.523438	-56.101929
2562.500000	-56.674168
2563.476562	-56.378292
2564.453125	-54.458118
2565.429688	-55.078621
2566.406250	-56.438515
2567.382812	-55.557186
2568.359375	-55.545113
2569.335938	-55.024471
2570.312500	-55.237625
2571.289062	-54.617180
2572.265625	-55.502117
2573.242188	-55.955849
2574.218750	-54.921604
2575.195312	-55.596249
2576.171875	-54.550041
2577.148438	-54.582836
2578.125000	-53.711243
2579.101562	-54.494381
2580.078125	-55.663910
2581.054688	-55.528091
2582.031250	-55.208321
2583.007812	-55.820312
2583.984375	-55.323669
2584.960938	-54.791138
2585.937500	-54.771690
2586.914062	-54.578102
2587.890625	-54.476341
2588.867188	-54.122185
2589.843750	-54.385460
2590.820312	-55.245266
2591.796875	-53.261417
2592.773438	-55.111168
2593.750000	-53.461655
2594.726562	-55.772312
2595.703125	-55.281921
2596.679688	-54.300255
2597.656250	-53.328850
2598.632812	-52.512096
2599.609375	-54.524349
2600.585938	-54.059490
2601.562500	-54.578442
2602.539062	-54.586220
2603.515625	-53.422279
2604.492188	-54.799847
2605.468750	-54.388569
2606.445312	-52.133472
2607.421875	-54.549187
2608.398438	-51.993801
2609.375000	-52.357117
2610.351562	-52.404976
2611.328125	-53.954933
2612.304688	-53.510887
2613.281250	-52.296001
2614.257812	-53.136108
2615.234375	-52.978214
2616.210938	-52.904774
2617.187500	-53.354050
2618.164062	-51.832069
2619.140625	-51.707344
2620.117188	-52.538105
2621.093750	-51.833916
2622.070312	-52.910515
2623.046875	-52.411472
2624.023438	-52.060791
2625.000000	-52.227947
2625.976562	-51.529964
2626.953125	-52.306675
2627.929688	-51.121262
2628.906250	-50.754143
2629.882812	-50.929893
2630.859375	-49.583984
2631.835938	-50.483395
2632.812500	-51.032356
2633.789062	-51.148014
2634.765625	-50.592010
2635.742188	-50.486675
2636.718750	-51.167198
2637.695312	-50.673157
2638.671875	-50.703358
2639.648438	-48.806267
2640.625000	-49.812374
2641.601562	-49.196514
2642.578125	-49.127293
2643.554688	-48.000553
2644.531250	-47.758068
2645.507812	-47.641590
2646.484375	-48.134079
2647.460938	-46.966965
2648.437500	-47.575016
2649.414062	-46.982929
2650.390625	-46.251961
2651.367188	-47.060402
2652.343750	-46.038929
2653.320312	-48.118343
2654.296875	-47.442368
2655.273438	-45.438175
2656.250000	-44.332783
2657.226562	-46.016891
2658.203125	-44.604763
2659.179688	-44.697296
2660.156250	-45.427879
2661.132812	-44.939968
2662.109375	-44.665340
2663.085938	-44.374149
2664.062500	-45.663212
2665.039062	-44.203213
2666.015625	-44.351585
2666.992188	-43.386803
2667.968750	-42.431427
2668.945312	-42.737106
2669.921875	-42.942219
2670.898438	-42.031792
2671.875000	-41.423676
2672.851562	-41.459572
2673.828125	-42.444489
2674.804688	-41.551003
2675.781250	-41.884811
2676.757812	-42.675270
2677.734375	-42.751274
2678.710938	-41.052715
2679.687500	-41.174007
2680.664062	-41.804569
2681.640625	-41.544407
2682.617188	-41.531548
2683.593750	-42.029953
2684.570312	-42.367329
2685.546875	-43.353001
2686.523438	-43.627186
2687.500000	-41.560490
2688.476562	-42.692596
2689.453125	-42.375629
2690.429688	-43.632549
2691.406250	-43.546795
2692.382812	-43.258823
2693.359375	-43.324078
2694.335938	-44.597504
2695.312500	-44.607380
2696.289062	-44.209080
2697.265625	-43.935654
2698.242188	-44.157547
2699.218750	-44.668007
2700.195312	-44.941433
2701.171875	-45.042549
2702.148438	-45.951992
2703.125000	-44.242817
2704.101562	-46.394215
2705.078125	-46.825665
2706.054688	-45.458847
2707.031250	-47.279560
2708.007812	-46.530693
2708.984375	-45.711296
2709.960938	-47.306976
2710.937500	-46.765068
2711.914062	-48.541008
2712.890625	-48.446102
2713.867188	-48.567616
2714.843750	-48.338051
2715.820312	-48.385197
2716.796875	-48.310829
2717.773438	-48.499840
2718.750000	-48.579590
2719.726562	-49.070343
2720.703125	-48.364948
2721.679688	-49.256535
2722.656250	-48.175484
2723.632812	-50.531719
2724.609375	-49.026882
2725.585938	-49.912743
2726.562500	-49.105885
2727.539062	-49.072723
2728.515625	-49.965618
2729.492188	-50.266281
2730.468750	-49.423450
2731.445312	-50.934395
2732.421875	-52.300674
2733.398438	-51.482311
2734.375000	-50.142948
2735.351562	-51.519451
2736.328125	-51.164139
2737.304688	-50.407471
2738.281250	-50.513931
2739.257812	-51.098347
2740.234375	-51.239056
2741.210938	-51.718037
2742.187500	-52.970020
2743.164062	-51.745537
2744.140625	-51.992241
2745.117188	-50.210133
2746.093750	-51.311405
2747.070312	-51.908707
2748.046875	-52.441986
2749.023438	-52.237419
2750.000000	-51.510906
2750.976562	-52.744308
2751.953125	-52.141972
2752.929688	-51.786736
2753.906250	-52.830582
2754.882812	-51.435085
2755.859375	-53.013260
2756.835938	-51.764294
2757.812500	-52.312565
2758.789062	-51.501698
2759.765625	-51.702480
2760.742188	-51.928108
2761.718750	-52.194405
2762.695312	-51.703602
2763.671875	-51.670158
2764.648438	-53.755215
2765.625000	-53.056194
2766.601562	-52.737103
2767.578125	-51.723236
2768.554688	-53.091362
2769.531250	-52.483475
2770.507812	-52.486847
2771.484375	-52.177544
2772.460938	-53.732368
2773.437500	-53.204315
2774.414062	-52.626087
2775.390625	-53.252274
2776.367188	-52.566189
2777.343750	-53.456081
2778.320312	-53.336033
2779.296875	-53.570423
2780.273438	-53.172363
2781.250000	-53.404991
2782.226562	-53.394661
2783.203125	-54.052643
2784.179688	-53.727314
2785.156250	-53.451744
2786.132812	-53.239616
2787.109375	-53.880703
2788.085938	-53.576794
2789.062500	-54.570683
2790.039062	-53.555439
2791.015625	-53.624023
2791.992188	-53.686344
2792.968750	-53.032688
2793.945312	-53.410900
2794.921875	-53.475555
2795.898438	-52.656227
2796.875000	-54.114433
2797.851562	-53.476936
2798.828125	-53.653053
2799.804688	-52.714252
2800.781250	-53.057003
2801.757812	-53.360149
2802.734375	-52.768658
2803.710938	-53.740265
2804.687500	-53.689072
2805.664062	-52.454094
2806.640625	-52.262047
2807.617188	-52.248447
2808.593750	-53.273125
2809.570312	-53.533298
2810.546875	-53.251545
2811.523438	-52.842945
2812.500000	-54.054726
2813.476562	-52.168858
2814.453125	-52.723045
2815.429688	-53.063667
2816.406250	-52.495895
2817.382812	-51.643177
2818.359375	-51.993317
2819.335938	-51.522030
2820.312500	-51.106705
2821.289062	-52.216335
2822.265625	-52.016148
2823.242188	-50.606747
2824.218750	-51.111534
2825.195312	-52.081028
2826.171875	-51.256386
2827.148438	-51.729900
2828.125000	-51.180008
2829.101562	-51.965973
2830.078125	-51.551872
2831.054688	-50.026855
2832.031250	-50.695778
2833.007812	-51.277412
2833.984375	-51.230968
2834.960938	-51.419930
2835.937500	-50.342350
2836.914062	-50.825199
2837.890625	-51.693871
2838.867188	-51.075069
2839.843750	-50.295921
2840.820312	-51.111450
2841.796875	-49.481606
2842.773438	-50.045437
2843.750000	-50.176937
2844.726562	-49.589958
2845.703125	-49.557171
2846.679688	-49.585785
2847.656250	-50.321651
2848.632812	-49.346569
2849.609375	-49.051109
2850.585938	-48.838001
2851.562500	-50.085903
2852.539062	-49.476894
2853.515625	-48.622437
2854.492188	-48.821228
2855.468750	-48.225052
2856.445312	-47.976303
2857.421875	-49.171780
2858.398438	-47.783794
2859.375000	-48.864273
2860.351562	-48.233646
2861.328125	-47.224010
2862.304688	-48.320568
2863.281250	-47.272671
2864.257812	-45.981617
2865.234375	-47.007492
2866.210938	-46.922367
2867.187500	-47.149548
2868.164062	-45.603073
2869.140625	-45.184601
2870.117188	-46.325203
2871.093750	-45.868450
2872.070312	-46.001945
2873.046875	-45.222027
2874.023438	-44.974533
2875.000000	-45.171921
2875.976562	-45.349915
2876.953125	-45.258064
2877.929688	-44.463318
2878.906250	-43.278896
2879.882812	-45.261452
2880.859375	-43.858364
2881.835938	-43.174198
2882.812500	-42.341770
2883.789062	-43.396965
2884.765625	-42.492420
2885.742188	-43.047615
2886.718750	-42.100853
2887.695312	-41.272087
2888.671875	-41.729973
2889.648438	-41.622654
2890.625000	-41.885681
2891.601562	-41.711208
2892.578125	-42.036991
2893.554688	-40.966927
2894.531250	-40.581924
2895.507812	-41.287621
2896.484375	-40.293503
2897.460938	-40.437641
2898.437500	-39.898712
2899.414062	-39.371670
2900.390625	-39.212906
2901.367188	-39.930958
2902.343750	-39.650032
2903.320312	-39.867176
2904.296875	-41.220036
2905.273438	-40.644196
2906.250000	-40.939888
2907.226562	-40.011707
2908.203125	-39.766930
2909.179688	-41.978687
2910.156250	-41.773273
2911.132812	-40.748932
2912.109375	-40.905014
2913.085938	-42.074841
2914.062500	-41.894360
2915.039062	-42.725418
2916.015625	-43.003727
2916.992188	-42.575718
2917.968750	-42.144302
2918.945312	-42.531254
2919.921875	-42.886639
2920.898438	-42.764141
2921.875000	-42.718735
2922.851562	-44.843178
2923.828125	-43.861179
2924.804688	-43.297207
2925.781250	-43.663342
2926.757812	-44.304470
2927.734375	-44.465050
2928.710938	-45.187183
2929.687500	-45.579720
2930.664062	-44.896942
2931.640625	-47.324150
2932.617188	-46.188900
2933.593750	-46.238083
2934.570312	-45.718346
2935.546875	-46.326481
2936.523438	-45.917404
2937.500000	-45.202160
2938.476562	-47.208031
2939.453125	-45.468517
2940.429688	-47.121220
2941.406250	-46.552898
2942.382812	-46.387245
2943.359375	-46.130802
2944.335938	-46.297165
2945.312500	-46.886837
2946.289062	-46.993538
2947.265625	-47.963238
2948.242188	-48.181816
2949.218750	-47.362396
2950.195312	-48.692581
2951.171875	-48.229111
2952.148438	-48.417835
2953.125000	-47.911415
2954.101562	-47.570629
2955.078125	-48.785416
2956.054688	-48.436035
2957.031250	-49.017315
2958.007812	-48.910263
2958.984375	-48.901630
2959.960938	-49.506393
2960.937500	-48.585274
2961.914062	-49.045322
2962.890625	-48.788910
2963.867188	-48.975773
2964.843750	-49.491135
2965.820312	-49.905193
2966.796875	-49.298378
2967.773438	-49.708801
2968.750000	-49.855312
2969.726562	-50.839375
2970.703125	-52.037991
2971.679688	-50.756866
2972.656250	-50.658493
2973.632812	-51.265957
2974.609375	-51.352921
2975.585938	-49.786205
2976.562500	-49.525112
2977.539062	-50.273609
2978.515625	-51.106422
2979.492188	-50.984348
2980.468750	-51.738228
2981.445312	-50.000408
2982.421875	-50.563217
2983.398438	-50.429199
2984.375000	-51.880657
2985.351562	-51.885937
2986.328125	-51.115860
2987.304688	-51.044308
2988.281250	-51.130692
2989.257812	-51.404617
2990.234375	-52.940296
2991.210938	-51.957230
2992.187500	-50.509949
2993.164062	-50.893261
2994.140625	-50.843418
2995.117188	-51.845856
2996.093750	-53.370430
2997.070312	-51.227249
2998.046875	-52.250038
2999.023438	-52.249168
3000.000000	-51.444271
3000.976562	-51.490452
3001.953125	-51.494545
3002.929688	-52.512230
3003.906250	-51.570435
3004.882812	-51.760353
3005.859375	-51.535275
3006.835938	-49.997746
3007.812500	-51.836449
3008.789062	-51.496464
3009.765625	-50.931091
3010.742188	-51.101570
3011.718750	-51.262802
3012.695312	-52.037094
3013.671875	-51.284428
3014.648438	-51.787704
3015.625000	-52.473671
3016.601562	-52.204102
3017.578125	-51.367737
3018.554688	-50.988892
3019.531250	-51.759800
3020.507812	-52.943802
3021.484375	-52.279243
3022.460938	-52.123684
3023.437500	-52.329899
3024.414062	-51.342422
3025.390625	-52.196465
3026.367188	-51.185230
3027.343750	-52.010071
3028.320312	-50.670788
3029.296875	-52.150040
3030.273438	-51.662884
3031.250000	-52.005573
3032.226562	-52.070744
3033.203125	-52.531189
3034.179688	-52.032318
3035.156250	-51.822083
3036.132812	-51.513885
3037.109375	-50.281235
3038.085938	-50.551647
3039.062500	-51.472198
3040.039062	-50.680340
3041.015625	-50.628933
3041.992188	-50.426262
3042.968750	-50.340679
3043.945312	-52.323975
3044.921875	-51.705444
3045.898438	-50.967373
3046.875000	-51.109657
3047.851562	-50.969536
3048.828125	-51.679150
3049.804688	-49.713501
3050.781250	-50.826950
3051.757812	-50.426281
3052.734375	-50.578545
3053.710938	-51.347279
3054.687500	-50.348671
3055.664062	-51.759529
3056.640625	-49.460880
3057.617188	-50.092976
3058.593750	-49.786175
3059.570312	-50.484997
3060.546875	-49.552090
3061.523438	-49.353050
3062.500000	-50.130077
3063.476562	-50.046757
3064.453125	-49.657303
3065.429688	-49.412472
3066.406250	-49.967621
3067.382812	-49.157852
3068.359375	-49.308056
3069.335938	-49.775650
3070.312500	-49.713615
3071.289062	-48.184280
3072.265625	-47.877274
3073.242188	-48.943970
3074.218750	-48.813000
3075.195312	-48.513901
3076.171875	-47.508884
3077.148438	-47.688015
3078.125000	-48.427254
3079.101562	-48.177387
3080.078125	-46.331001
3081.054688	-47.475311
3082.031250	-47.967480
3083.007812	-46.328205
3083.984375	-48.806248
3084.960938	-47.428368
3085.937500	-46.922321
3086.914062	-47.198677
3087.890625	-48.313789
3088.867188	-46.820080
3089.843750	-45.382938
3090.820312	-47.093716
3091.796875	-45.888927
3092.773438	-46.822914
3093.750000	-46.009850
3094.726562	-44.840122
3095.703125	-45.485447
3096.679688	-45.288475
3097.656250	-45.055962
3098.632812	-43.706684
3099.609375	-44.089245
3100.585938	-43.872578
3101.562500	-43.803154
3102.539062	-43.048561
3103.515625	-43.183567
3104.492188	-44.040703
3105.468750	-42.859348
3106.445312	-42.410446
3107.421875	-42.643120
3108.398438	-43.169975
3109.375000	-42.240906
3110.351562	-42.019085
3111.328125	-42.517471
3112.304688	-41.955952
3113.281250	-41.379868
3114.257812	-40.186047
3115.234375	-41.054760
3116.210938	-41.194046
3117.187500	-42.018795
3118.164062	-40.318798
3119.140625	-39.707714
3120.117188	-40.382469
3121.093750	-40.253574
3122.070312	-39.895699
3123.046875	-40.318516
3124.023438	-39.872463
3125.000000	-39.978798
3125.976562	-38.664585
3126.953125	-40.046997
3127.929688	-40.693043
3128.906250	-40.161942
3129.882812	-39.501175
3130.859375	-39.573215
3131.835938	-40.526558
3132.812500	-40.283897
3133.789062	-39.972668
3134.765625	-40.770596
3135.742188	-40.825775
3136.718750	-40.554867
3137.695312	-40.720280
3138.671875	-42.911087
3139.648438	-40.777954
3140.625000	-42.517422
3141.601562	-43.008686
3142.578125	-41.666058
3143.554688	-43.224106
3144.531250	-41.549320
3145.507812	-42.560204
3146.484375	-42.742088
3147.460938	-41.875595
3148.437500	-42.919659
3149.414062	-43.094208
3150.390625	-43.069069
3151.367188	-43.386391
3152.343750	-43.658012
3153.320312	-44.635994
3154.296875	-43.651550
3155.273438	-44.378586
3156.250000	-44.957142
3157.226562	-43.869480
3158.203125	-44.436207
3159.179688	-44.736065
3160.156250	-46.573471
3161.132812	-46.309669
3162.109375	-45.041691
3163.085938	-46.742516
3164.062500	-46.501354
3165.039062	-47.312572
3166.015625	-46.436897
3166.992188	-45.718300
3167.968750	-47.271183
3168.945312	-46.778893
3169.921875	-45.956394
3170.898438	-45.977787
3171.875000	-46.560387
3172.851562	-47.901573
3173.828125	-47.675472
3174.804688	-48.636654
3175.781250	-47.432480
3176.757812	-47.233253
3177.734375	-47.444981
3178.710938	-48.313747
3179.687500	-46.780907
3180.664062	-47.948742
3181.640625	-48.425472
3182.617188	-47.672546
3183.593750	-48.570305
3184.570312	-47.673523
3185.546875	-49.135498
3186.523438	-48.477749
3187.500000	-48.085144
3188.476562	-49.493111
3189.453125	-49.222885
3190.429688	-47.817188
3191.406250	-48.274006
3192.382812	-50.402725
3193.359375	-50.791183
3194.335938	-50.109253
3195.312500	-50.299755
3196.289062	-50.006668
3197.265625	-49.206104
3198.242188	-50.743626
3199.218750	-49.590034
3200.195312	-50.838284
3201.171875	-49.668495
3202.148438	-49.947178
3203.125000	-50.583084
3204.101562	-50.183907
3205.078125	-50.395180
3206.054688	-49.474365
3207.031250	-50.119164
3208.007812	-50.018177
3208.984375	-50.053795
3209.960938	-50.343727
3210.937500	-49.769897
3211.914062	-50.365841
3212.890625	-52.500557
3213.867188	-50.521729
3214.843750	-51.395802
3215.820312	-50.900249
3216.796875	-50.660767
3217.773438	-51.025944
3218.750000	-50.182114
3219.726562	-51.487789
3220.703125	-51.495441
3221.679688	-51.534988
3222.656250	-51.017101
3223.632812	-50.461880
3224.609375	-51.649036
3225.585938	-52.350296
3226.562500	-52.129936
3227.539062	-51.937378
3228.515625	-51.970490
3229.492188	-50.812325
3230.468750	-50.923664
3231.445312	-51.061279
3232.421875	-52.118885
3233.398438	-50.862679
3234.375000	-51.556858
3235.351562	-50.775803
3236.328125	-51.843300
3237.304688	-51.537628
3238.281250	-52.000278
3239.257812	-51.602051
3240.234375	-51.740421
3241.210938	-50.236183
3242.187500	-50.030640
3243.164062	-50.170780
3244.140625	-50.843456
3245.117188	-52.099319
3246.093750	-51.788284
3247.070312	-51.214005
3248.046875	-50.978840
3249.023438	-51.305870
3250.000000	-51.039188
3250.976562	-49.722061
3251.953125	-50.905289
3252.929688	-50.034149
3253.906250	-50.727810
3254.882812	-50.991524
3255.859375	-51.031818
3256.835938	-50.730885
3257.812500	-51.293247
3258.789062	-51.654713
3259.765625	-50.096966
3260.742188	-51.816349
3261.718750	-50.788765
3262.695312	-51.025120
3263.671875	-51.858234
3264.648438	-49.597820
3265.625000	-51.330486
3266.601562	-49.649532
3267.578125	-51.355492
3268.554688	-50.567520
3269.531250	-50.326881
3270.507812	-51.269192
3271.484375	-50.276264
3272.460938	-50.385796
3273.437500	-51.315422
3274.414062	-51.903736
3275.390625	-49.253441
3276.367188	-49.565247
3277.343750	-49.340714
3278.320312	-51.832172
3279.296875	-49.236027
3280.273438	-48.631832
3281.250000	-48.943108
3282.226562	-49.421265
3283.203125	-50.102337
3284.179688	-50.182804
3285.156250	-48.608810
3286.132812	-49.585342
3287.109375	-50.526035
3288.085938	-49.551884
3289.062500	-49.241142
3290.039062	-48.979343
3291.015625	-48.816868
3291.992188	-49.675156
3292.968750	-49.268951
3293.945312	-49.097221
3294.921875	-48.707699
3295.898438	-48.353485
3296.875000	-48.640549
3297.851562	-48.189430
3298.828125	-48.575703
3299.804688	-48.592648
3300.781250	-49.045918
3301.757812	-47.578308
3302.734375	-47.719910
3303.710938	-47.392262
3304.687500	-47.976242
3305.664062	-47.890209
3306.640625	-48.395195
3307.617188	-48.764343
3308.593750	-48.090397
3309.570312	-46.150536
3310.546875	-46.316399
3311.523438	-46.884888
3312.500000	-45.626274
3313.476562	-49.067883
3314.453125	-47.713711
3315.429688	-46.437408
3316.406250	-44.991749
3317.382812	-45.600048
3318.359375	-45.218296
3319.335938	-46.538086
3320.312500	-44.479561
3321.289062	-44.597153
3322.265625	-45.169277
3323.242188	-44.396770
3324.218750	-43.697006
3325.195312	-44.009239
3326.171875	-43.961548
3327.148438	-44.070080
3328.125000	-43.515339
3329.101562	-44.375240
3330.078125	-43.277897
3331.054688	-42.337658
3332.031250	-43.979370
3333.007812	-43.605286
3333.984375	-44.328220
3334.960938	-42.837894
3335.937500	-41.394123
3336.914062	-41.792221
3337.890625	-42.089458
3338.867188	-41.150433
3339.843750	-40.706490
3340.820312	-41.196136
3341.796875	-40.310863
3342.773438	-41.392868
3343.750000	-41.388889
3344.726562	-40.607349
3345.703125	-40.457558
3346.679688	-41.142307
3347.656250	-39.093739
3348.632812	-41.448704
3349.609375	-41.236675
3350.585938	-40.158539
3351.562500	-41.050705
3352.539062	-39.358086
3353.515625	-40.047707
3354.492188	-40.912830
3355.468750	-39.810562
3356.445312	-41.174828
3357.421875	-40.837723
3358.398438	-40.587399
3359.375000	-42.414047
3360.351562	-41.308018
3361.328125	-41.942554
3362.304688	-43.162407
3363.281250	-41.727894
3364.257812	-40.443176
3365.234375	-41.982674
3366.210938	-42.727371
3367.187500	-43.397221
3368.164062	-42.029358
3369.140625	-42.477825
3370.117188	-42.114426
3371.093750	-43.371994
3372.070312	-43.690163
3373.046875	-43.924736
3374.023438	-44.183823
3375.000000	-44.457581
3375.976562	-43.808434
3376.953125	-43.275791
3377.929688	-44.323219
3378.906250	-45.591007
3379.882812	-44.903259
3380.859375	-44.797253
3381.835938	-44.376904
3382.812500	-47.176796
3383.789062	-44.944122
3384.765625	-44.775513
3385.742188	-44.679054
3386.718750	-45.279636
3387.695312	-46.852150
3388.671875	-46.977295
3389.648438	-47.276371
3390.625000	-47.163559
3391.601562	-48.082664
3392.578125	-46.566589
3393.554688	-48.709835
3394.531250	-49.033466
3395.507812	-48.997601
3396.484375	-48.088551
3397.460938	-47.950207
3398.437500	-47.835625
3399.414062	-48.602242
3400.390625	-48.343632
3401.367188	-48.081242
3402.343750	-48.473351
3403.320312	-48.779465
3404.296875	-49.924225
3405.273438	-48.659981
3406.250000	-48.916611
3407.226562	-48.452847
3408.203125	-48.263248
3409.179688	-49.306618
3410.156250	-47.437309
3411.132812	-47.690094
3412.109375	-49.147701
3413.085938	-50.297821
3414.062500	-50.703403
3415.039062	-49.453365
3416.015625	-49.225964
3416.992188	-50.086960
3417.968750	-50.216106
3418.945312	-49.321129
3419.921875	-49.285709
3420.898438	-50.438633
3421.875000	-50.603958
3422.851562	-50.424789
3423.828125	-50.378311
3424.804688	-50.518349
3425.781250	-50.860176
3426.757812	-49.907337
3427.734375	-50.280037
3428.710938	-51.606323
3429.687500	-50.768421
3430.664062	-50.783585
3431.640625	-49.860497
3432.617188	-51.512363
3433.593750	-50.280960
3434.570312	-50.533897
3435.546875	-51.943066
3436.523438	-51.801376
3437.500000	-49.695667
3438.476562	-49.161076
3439.453125	-51.463867
3440.429688	-51.479790
3441.406250	-50.376884
3442.382812	-50.737213
3443.359375	-51.178989
3444.335938	-51.586819
3445.312500	-52.523006
3446.289062	-52.028061
3447.265625	-52.263264
3448.242188	-51.807980
3449.218750	-51.097065
3450.195312	-51.189407
3451.171875	-51.311405
3452.148438	-51.410435
3453.125000	-52.152302
3454.101562	-53.585228
3455.078125	-52.063610
3456.054688	-51.316868
3457.031250	-51.339725
3458.007812	-51.701172
3458.984375	-51.665295
3459.960938	-51.838203
3460.937500	-52.172863
3461.914062	-50.597900
3462.890625	-52.162270
3463.867188	-51.668926
3464.843750	-51.376453
3465.820312	-50.861950
3466.796875	-51.647579
3467.773438	-51.514744
3468.750000	-51.078968
3469.726562	-50.898121
3470.703125	-51.930683
3471.679688	-51.487045
3472.656250	-51.307991
3473.632812	-51.088673
3474.609375	-50.744156
3475.585938	-52.562626
3476.562500	-52.007671
3477.539062	-52.291229
3478.515625	-51.825581
3479.492188	-50.688305
3480.468750	-50.796703
3481.445312	-51.170223
3482.421875	-51.657772
3483.398438	-52.132866
3484.375000	-51.201756
3485.351562	-51.152130
3486.328125	-52.470997
3487.304688	-50.930626
3488.281250	-50.703251
3489.257812	-49.981396
3490.234375	-51.922600
3491.210938	-50.529835
3492.187500	-51.173363
3493.164062	-50.593452
3494.140625	-50.648624
3495.117188	-51.479660
3496.093750	-51.240696
3497.070312	-49.753216
3498.046875	-51.101467
3499.023438	-50.256695
3500.000000	-50.274124
3500.976562	-50.890404
3501.953125	-49.720123
3502.929688	-50.769527
3503.906250	-50.077621
3504.882812	-49.407951
3505.859375	-51.424259
3506.835938	-50.148804
3507.812500	-49.924011
3508.789062	-50.631382
3509.765625	-49.488838
3510.742188	-49.046394
3511.718750	-50.857563
3512.695312	-50.563358
3513.671875	-50.297218
3514.648438	-49.151981
3515.625000	-49.069939
3516.601562	-49.222218
3517.578125	-48.432137
3518.554688	-49.166035
3519.531250	-49.436573
3520.507812	-48.836056
3521.484375	-49.373898
3522.460938	-47.459698
3523.437500	-47.079445
3524.414062	-49.348961
3525.390625	-47.848946
3526.367188	-47.666889
3527.343750	-48.310200
3528.320312	-48.064568
3529.296875	-48.489147
3530.273438	-49.254898
3531.250000	-48.065628
3532.226562	-47.539284
3533.203125	-46.107231
3534.179688	-46.422493
3535.156250	-46.799599
3536.132812	-46.004261
3537.109375	-45.697338
3538.085938	-45.616016
3539.062500	-46.202011
3540.039062	-46.791988
3541.015625	-45.615452
3541.992188	-45.752640
3542.968750	-45.976505
3543.945312	-45.195183
3544.921875	-44.062084
3545.898438	-45.106209
3546.875000	-45.908009
3547.851562	-44.745796
3548.828125	-44.401508
3549.804688	-44.081245
3550.781250	-44.444695
3551.757812	-43.160950
3552.734375	-43.900909
3553.710938	-44.894886
3554.687500	-43.823158
3555.664062	-43.406906
3556.640625	-42.573429
3557.617188	-42.768723
3558.593750	-42.851330
3559.570312	-42.194435
3560.546875	-42.679089
3561.523438	-42.596359
3562.500000	-41.158001
3563.476562	-40.864510
3564.453125	-41.744286
3565.429688	-41.856331
3566.406250	-40.579285
3567.382812	-40.070396
3568.359375	-41.742455
3569.335938	-40.925877
3570.312500	-40.995857
3571.289062	-40.786381
3572.265625	-40.063488
3573.242188	-41.278416
3574.218750	-40.460064
3575.195312	-40.478199
3576.171875	-41.728062
3577.148438	-40.921799
3578.125000	-40.421486
3579.101562	-42.046410
3580.078125	-40.715511
3581.054688	-40.835396
3582.031250	-40.719257
3583.007812	-42.118256
3583.984375	-41.680584
3584.960938	-42.584183
3585.937500	-42.742619
3586.914062	-42.014736
3587.890625	-42.333736
3588.867188	-43.301914
3589.843750	-43.377567
3590.820312	-43.349934
3591.796875	-43.644588
3592.773438	-42.453140
3593.750000	-44.886711
3594.726562	-43.474098
3595.703125	-43.432507
3596.679688	-44.731812
3597.656250	-44.951355
3598.632812	-44.329994
3599.609375	-44.550179
3600.585938	-44.902527
3601.562500	-45.151695
3602.539062	-43.403225
3603.515625	-46.356426
3604.492188	-46.353378
3605.468750	-47.201584
3606.445312	-47.438816
3607.421875	-46.565323
3608.398438	-45.078541
3609.375000	-45.716152
3610.351562	-45.262825
3611.328125	-46.636162
3612.304688	-46.203045
3613.281250	-47.770775
3614.257812	-48.458416
3615.234375	-46.943199
3616.210938	-47.827835
3617.187500	-48.550503
3618.164062	-49.032619
3619.140625	-49.097260
3620.117188	-47.631706
3621.093750	-47.209213
3622.070312	-47.810093
3623.046875	-48.376442
3624.023438	-48.688492
3625.000000	-47.709747
3625.976562	-48.783695
3626.953125	-48.669228
3627.929688	-49.923580
3628.906250	-49.342125
3629.882812	-49.492657
3630.859375	-49.107567
3631.835938	-50.848030
3632.812500	-50.997009
3633.789062	-49.498856
3634.765625	-48.732372
3635.742188	-51.248737
3636.718750	-50.226749
3637.695312	-50.913090
3638.671875	-49.340324
3639.648438	-49.897457
3640.625000	-49.608391
3641.601562	-49.437759
3642.578125	-50.846668
3643.554688	-50.346470
3644.531250	-50.048405
3645.507812	-50.719028
3646.484375	-51.478291
3647.460938	-50.735413
3648.437500	-51.460468
3649.414062	-51.698940
3650.390625	-51.362202
3651.367188	-51.956249
3652.343750	-52.920898
3653.320312	-50.553795
3654.296875	-50.163536
3655.273438	-51.477367
3656.250000	-51.453022
3657.226562	-51.241066
3658.203125	-52.346706
3659.179688	-52.693932
3660.156250	-51.954273
3661.132812	-51.469494
3662.109375	-52.204319
3663.085938	-52.704750
3664.062500	-51.580284
3665.039062	-51.714424
3666.015625	-51.781307
3666.992188	-50.762756
3667.968750	-53.283066
3668.945312	-52.226238
3669.921875	-52.387722
3670.898438	-52.057789
3671.875000	-51.263088
3672.851562	-52.779568
3673.828125	-52.871952
3674.804688	-52.307243
3675.781250	-52.270252
3676.757812	-51.987556
3677.734375	-51.687782
3678.710938	-52.058056
3679.687500	-52.589695
3680.664062	-52.354046
3681.640625	-52.293228
3682.617188	-53.378540
3683.593750	-52.407589
3684.570312	-52.756374
3685.546875	-51.812832
3686.523438	-52.406498
3687.500000	-52.053562
3688.476562	-51.951962
3689.453125	-51.769939
3690.429688	-51.787395
3691.406250	-51.834206
3692.382812	-51.687565
3693.359375	-51.042568
3694.335938	-51.753197
3695.312500	-51.974289
3696.289062	-52.028465
3697.265625	-52.197254
3698.242188	-51.428280
3699.218750	-51.379440
3700.195312	-51.199959
3701.171875	-51.902866
3702.148438	-52.351524
3703.125000	-50.920097
3704.101562	-51.192425
3705.078125	-50.843098
3706.054688	-50.857731
3707.031250	-51.862663
3708.007812	-52.213139
3708.984375	-52.723976
3709.960938	-51.374947
3710.937500	-52.285252
3711.914062	-50.834648
3712.890625	-52.970280
3713.867188	-53.145699
3714.843750	-51.895374
3715.820312	-52.430775
3716.796875	-50.957016
3717.773438	-51.364727
3718.750000	-51.716232
3719.726562	-52.184029
3720.703125	-50.386414
3721.679688	-50.636944
3722.656250	-50.567867
3723.632812	-52.067699
3724.609375	-50.178024
3725.585938	-49.997147
3726.562500	-49.795547
3727.539062	-49.914268
3728.515625	-51.016106
3729.492188	-49.952766
3730.468750	-49.707371
3731.445312	-50.734940
3732.421875	-49.455086
3733.398438	-50.183125
3734.375000	-50.095253
3735.351562	-51.117043
3736.328125	-49.515572
3737.304688	-50.079712
3738.281250	-50.772274
3739.257812	-49.001968
3740.234375	-50.598938
3741.210938	-51.036636
3742.187500	-50.503441
3743.164062	-49.932358
3744.140625	-49.161346
3745.117188	-49.126755
3746.093750	-48.582230
3747.070312	-48.061333
3748.046875	-48.890732
3749.023438	-48.740288
3750.000000	-49.146221
3750.976562	-49.928997
3751.953125	-47.423046
3752.929688	-47.783466
3753.906250	-47.917953
3754.882812	-48.009739
3755.859375	-47.575729
3756.835938	-47.711159
3757.812500	-48.339767
3758.789062	-47.845722
3759.765625	-46.503551
3760.742188	-46.882175
3761.718750	-47.378277
3762.695312	-47.434223
3763.671875	-45.995800
3764.648438	-46.852264
3765.625000	-46.524883
3766.601562	-46.083176
3767.578125	-46.515148
3768.554688	-45.751358
3769.531250	-46.158863
3770.507812	-45.814144
3771.484375	-44.244488
3772.460938	-42.898067
3773.437500	-44.369854
3774.414062	-45.130173
3775.390625	-44.486187
3776.367188	-45.939426
3777.343750	-43.764297
3778.320312	-42.837879
3779.296875	-42.134396
3780.273438	-43.674786
3781.250000	-42.099098
3782.226562	-43.404312
3783.203125	-42.848354
3784.179688	-41.738533
3785.156250	-41.747246
3786.132812	-41.101120
3787.109375	-42.582630
3788.085938	-42.504448
3789.062500	-42.710289
3790.039062	-42.171204
3791.015625	-41.829388
3791.992188	-41.294632
3792.968750	-41.179848
3793.945312	-42.044388
3794.921875	-42.306618
3795.898438	-42.114460
3796.875000	-41.236572
3797.851562	-41.381165
3798.828125	-40.311615
3799.804688	-42.776180
3800.781250	-42.590973
3801.757812	-41.515144
3802.734375	-41.513138
3803.710938	-41.324013
3804.687500	-42.699188
3805.664062	-42.914925
3806.640625	-41.549168
3807.617188	-44.107689
3808.593750	-43.587971
3809.570312	-42.733421
3810.546875	-43.782616
3811.523438	-43.910393
3812.500000	-43.898312
3813.476562	-43.692165
3814.453125	-42.978493
3815.429688	-43.771568
3816.406250	-43.653324
3817.382812	-44.304783
3818.359375	-44.821579
3819.335938	-44.999294
3820.312500	-45.119995
3821.289062	-46.643192
3822.265625	-46.171391
3823.242188	-45.661442
3824.218750	-45.648674
3825.195312	-45.673687
3826.171875	-45.726120
3827.148438	-46.530746
3828.125000	-46.634956
3829.101562	-46.107700
3830.078125	-47.197029
3831.054688	-45.945347
3832.031250	-47.227467
3833.007812	-48.585396
3833.984375	-47.736042
3834.960938	-46.382160
3835.937500	-47.031063
3836.914062	-49.127937
3837.890625	-48.177780
3838.867188	-47.631100
3839.843750	-47.914280
3840.820312	-49.509716
3841.796875	-48.950310
3842.773438	-49.233086
3843.750000	-49.161606
3844.726562	-49.542702
3845.703125	-47.740074
3846.679688	-49.468239
3847.656250	-48.966206
3848.632812	-49.104172
3849.609375	-49.321594
3850.585938	-49.811104
3851.562500	-49.198349
3852.539062	-48.953629
3853.515625	-49.692783
3854.492188	-49.460270
3855.468750	-50.692612
3856.445312	-49.799816
3857.421875	-49.557743
3858.398438	-51.543980
3859.375000	-51.401814
3860.351562	-50.969887
3861.328125	-51.724251
3862.304688	-51.158600
3863.281250	-50.379040
3864.257812	-51.383148
3865.234375	-51.472832
3866.210938	-51.280865
3867.187500	-50.644688
3868.164062	-50.865681
3869.140625	-52.663223
3870.117188	-52.217873
3871.093750	-51.045372
3872.070312	-51.151154
3873.046875	-51.297619
3874.023438	-51.102734
3875.000000	-51.173035
3875.976562	-52.747902
3876.953125	-53.227135
3877.929688	-51.492523
3878.906250	-51.519253
3879.882812	-52.442947
3880.859375	-52.322319
3881.835938	-52.111301
3882.812500	-51.019878
3883.789062	-51.846588
3884.765625	-51.924007
3885.742188	-52.171215
3886.718750	-52.139046
3887.695312	-52.737659
3888.671875	-51.504349
3889.648438	-52.113491
3890.625000	-51.095604
3891.601562	-51.341305
3892.578125	-52.179928
3893.554688	-52.277969
3894.531250	-51.188644
3895.507812	-52.026875
3896.484375	-51.578968
3897.460938	-52.307110
3898.437500	-53.601078
3899.414062	-52.996925
3900.390625	-53.138393
3901.367188	-52.098030
3902.343750	-52.005348
3903.320312	-52.495975
3904.296875	-52.525299
3905.273438	-53.912254
3906.250000	-53.849438
3907.226562	-52.596458
3908.203125	-52.741287
3909.179688	-51.489983
3910.156250	-53.206913
3911.132812	-51.332336
3912.109375	-51.794849
3913.085938	-51.931179
3914.062500	-52.150036
3915.039062	-52.310928
3916.015625	-51.712975
3916.992188	-52.719124
3917.968750	-51.495819
3918.945312	-51.738403
3919.921875	-53.371838
3920.898438	-52.771057
3921.875000	-51.771862
3922.851562	-51.971161
3923.828125	-52.288670
3924.804688	-52.242149
3925.781250	-51.196064
3926.757812	-51.996265
3927.734375	-51.483124
3928.710938	-52.014896
3929.687500	-51.616837
3930.664062	-52.221165
3931.640625	-50.340569
3932.617188	-51.127842
3933.593750	-50.206924
3934.570312	-51.751759
3935.546875	-51.902985
3936.523438	-50.654667
3937.500000	-50.301697
3938.476562	-50.401978
3939.453125	-51.118065
3940.429688	-51.393803
3941.406250	-51.520603
3942.382812	-50.939171
3943.359375	-51.074497
3944.335938	-49.742378
3945.312500	-50.444576
3946.289062	-52.683945
3947.265625	-52.304501
3948.242188	-51.482979
3949.218750	-49.418232
3950.195312	-50.269333
3951.171875	-49.585300
3952.148438	-51.234783
3953.125000	-50.437943
3954.101562	-50.209461
3955.078125	-51.268188
3956.054688	-49.629364
3957.031250	-50.957092
3958.007812	-49.069164
3958.984375	-50.017998
3959.960938	-49.387657
3960.937500	-50.528885
3961.914062	-49.252789
3962.890625	-49.860733
3963.867188	-51.256458
3964.843750	-50.679218
3965.820312	-49.040642
3966.796875	-49.323219
3967.773438	-49.582554
3968.750000	-49.410728
3969.726562	-49.258110
3970.703125	-48.579929
3971.679688	-49.075172
3972.656250	-48.243244
3973.632812	-46.762642
3974.609375	-48.354492
3975.585938	-48.298168
3976.562500	-47.806149
3977.539062	-47.703487
3978.515625	-48.003094
3979.492188	-48.565601
3980.468750	-46.586540
3981.445312	-45.752129
3982.421875	-46.660202
3983.398438	-46.912308
3984.375000	-47.158756
3985.351562	-47.301422
3986.328125	-46.613514
3987.304688	-46.588966
3988.281250	-45.238735
3989.257812	-44.832291
3990.234375	-45.454849
3991.210938	-45.137966
3992.187500	-45.938290
3993.164062	-45.141048
3994.140625	-44.715576
3995.117188	-44.594337
3996.093750	-45.048985
3997.070312	-44.731544
3998.046875	-42.917336
3999.023438	-44.837227
4000.000000	-45.320801
4000.976562	-43.726688
4001.953125	-43.503071
4002.929688	-42.896076
4003.906250	-42.991219
4004.882812	-42.952282
4005.859375	-42.994473
4006.835938	-42.359844
4007.812500	-41.806229
4008.789062	-43.680656
4009.765625	-41.739197
4010.742188	-41.961414
4011.718750	-43.875240
4012.695312	-42.928886
4013.671875	-41.764080
4014.648438	-42.233719
4015.625000	-42.050629
4016.601562	-41.710831
4017.578125	-42.807648
4018.554688	-42.735500
4019.531250	-41.789745
4020.507812	-42.556625
4021.484375	-42.591858
4022.460938	-42.029732
4023.437500	-42.434185
4024.414062	-42.181049
4025.390625	-42.258522
4026.367188	-42.674286
4027.343750	-42.815914
4028.320312	-44.123859
4029.296875	-43.962795
4030.273438	-42.734241
4031.250000	-42.115623
4032.226562	-43.894890
4033.203125	-43.445442
4034.179688	-44.224834
4035.156250	-43.686920
4036.132812	-44.032131
4037.109375	-45.780010
4038.085938	-45.235909
4039.062500	-44.352180
4040.039062	-44.484241
4041.015625	-45.467060
4041.992188	-45.882145
4042.968750	-45.402397
4043.945312	-45.888599
4044.921875	-45.957741
4045.898438	-45.641479
4046.875000	-46.691662
4047.851562	-47.294914
4048.828125	-45.205006
4049.804688	-47.070408
4050.781250	-47.276089
4051.757812	-47.382339
4052.734375	-47.307201
4053.710938	-47.416817
4054.687500	-47.855530
4055.664062	-47.624409
4056.640625	-48.382313
4057.617188	-47.702141
4058.593750	-48.143139
4059.570312	-47.910229
4060.546875	-48.550873
4061.523438	-50.060940
4062.500000	-48.289013
4063.476562	-48.470406
4064.453125	-49.132416
4065.429688	-49.284058
4066.406250	-47.671902
4067.382812	-48.113983
4068.359375	-49.406113
4069.335938	-48.858318
4070.312500	-48.634930
4071.289062	-48.716373
4072.265625	-49.157753
4073.242188	-49.757454
4074.218750	-49.529099
4075.195312	-50.584221
4076.171875	-50.446030
4077.148438	-49.822327
4078.125000	-51.168190
4079.101562	-49.343636
4080.078125	-50.774887
4081.054688	-50.027821
4082.031250	-51.087757
4083.007812	-51.179489
4083.984375	-49.818565
4084.960938	-50.083588
4085.937500	-50.820751
4086.914062	-51.696259
4087.890625	-52.312851
4088.867188	-50.594608
4089.843750	-50.404606
4090.820312	-51.358688
4091.796875	-51.214123
4092.773438	-52.791046
4093.750000	-51.589783
4094.726562	-51.630909
4095.703125	-51.123806
4096.679688	-51.993324
4097.656250	-52.004475
4098.632812	-51.087540
4099.609375	-51.212940
4100.585938	-52.775562
4101.562500	-53.710125
4102.539062	-52.764706
4103.515625	-51.204269
4104.492188	-52.414291
4105.468750	-51.223396
4106.445312	-51.500435
4107.421875	-51.062469
4108.398438	-51.670879
4109.375000	-52.026703
4110.351562	-52.110744
4111.328125	-51.689789
4112.304688	-51.853882
4113.281250	-53.098614
4114.257812	-51.602695
4115.234375	-52.666656
4116.210938	-52.068436
4117.187500	-53.117043
4118.164062	-50.827782
4119.140625	-52.354755
4120.117188	-51.490208
4121.093750	-52.626686
4122.070312	-51.633705
4123.046875	-51.980656
4124.023438	-53.101688
4125.000000	-52.325375
4125.976562	-52.433907
4126.953125	-52.733818
4127.929688	-53.264870
4128.906250	-53.045486
4129.882812	-53.082218
4130.859375	-52.654434
4131.835938	-51.531624
4132.812500	-51.457706
4133.789062	-51.790844
4134.765625	-52.786022
4135.742188	-51.972443
4136.718750	-51.774349
4137.695312	-51.676392
4138.671875	-53.087902
4139.648438	-51.850712
4140.625000	-52.267570
4141.601562	-52.111061
4142.578125	-51.221737
4143.554688	-52.294727
4144.531250	-52.640259
4145.507812	-50.790928
4146.484375	-51.141819
4147.460938	-51.471130
4148.437500	-53.320549
4149.414062	-52.429409
4150.390625	-51.359615
4151.367188	-51.773857
4152.343750	-51.400635
4153.320312	-52.078819
4154.296875	-50.636021
4155.273438	-50.435883
4156.250000	-50.145798
4157.226562	-51.182240
4158.203125	-52.009632
4159.179688	-51.175251
4160.156250	-50.946617
4161.132812	-51.377090
4162.109375	-52.201286
4163.085938	-50.138714
4164.062500	-51.338699
4165.039062	-50.917103
4166.015625	-50.001747
4166.992188	-49.501381
4167.968750	-51.117836
4168.945312	-51.186039
4169.921875	-51.928864
4170.898438	-51.698730
4171.875000	-51.335110
4172.851562	-49.705059
4173.828125	-50.417461
4174.804688	-50.080250
4175.781250	-49.265678
4176.757812	-49.855167
4177.734375	-49.868683
4178.710938	-50.906548
4179.687500	-50.256859
4180.664062	-50.162212
4181.640625	-49.091270
4182.617188	-49.770615
4183.593750	-48.729389
4184.570312	-49.061539
4185.546875	-50.352699
4186.523438	-50.226368
4187.500000	-49.167145
4188.476562	-48.619213
4189.453125	-50.292583
4190.429688	-49.216801
4191.406250	-47.649796
4192.382812	-46.912518
4193.359375	-46.946259
4194.335938	-47.468113
4195.312500	-48.166004
4196.289062	-49.543404
4197.265625	-47.954391
4198.242188	-48.128284
4199.218750	-47.374786
4200.195312	-46.424477
4201.171875	-48.127228
4202.148438	-47.300720
4203.125000	-46.505322
4204.101562	-46.473625
4205.078125	-45.815853
4206.054688	-46.427605
4207.031250	-46.381176
4208.007812	-45.090984
4208.984375	-45.879101
4209.960938	-45.496841
4210.937500	-46.833405
4211.914062	-46.091534
4212.890625	-45.052094
4213.867188	-45.772652
4214.843750	-46.346371
4215.820312	-44.311676
4216.796875	-43.860558
4217.773438	-44.355808
4218.750000	-44.142784
4219.726562	-44.350712
4220.703125	-45.648777
4221.679688	-43.361652
4222.656250	-44.278149
4223.632812	-43.263206
4224.609375	-43.651924
4225.585938	-43.338242
4226.562500	-42.782082
4227.539062	-43.334034
4228.515625	-41.690262
4229.492188	-42.667591
4230.468750	-43.675030
4231.445312	-43.437355
4232.421875	-43.380032
4233.398438	-41.647427
4234.375000	-41.861416
4235.351562	-42.721684
4236.328125	-42.124302
4237.304688	-42.532898
4238.281250	-43.246143
4239.257812	-43.200317
4240.234375	-42.153431
4241.210938	-43.457397
4242.187500	-42.033585
4243.164062	-42.364037
4244.140625	-42.223335
4245.117188	-41.750130
4246.093750	-43.213142
4247.070312	-44.006069
4248.046875	-43.738266
4249.023438	-43.436935
4250.000000	-43.354652
4250.976562	-42.634789
4251.953125	-43.653648
4252.929688	-44.017723
4253.906250	-44.377769
4254.882812	-43.695580
4255.859375	-44.052925
4256.835938	-44.965839
4257.812500	-45.207970
4258.789062	-43.983723
4259.765625	-44.218948
4260.742188	-44.166550
4261.718750	-44.434170
4262.695312	-44.795433
4263.671875	-45.707619
4264.648438	-45.649456
4265.625000	-45.648682
4266.601562	-45.961136
4267.578125	-46.650242
4268.554688	-48.043007
4269.531250	-46.001751
4270.507812	-46.469685
4271.484375	-47.033741
4272.460938	-46.624001
4273.437500	-46.938866
4274.414062	-46.956287
4275.390625	-48.262772
4276.367188	-47.161972
4277.343750	-47.838039
4278.320312	-47.462070
4279.296875	-47.793941
4280.273438	-48.303608
4281.250000	-47.488636
4282.226562	-48.748573
4283.203125	-48.837780
4284.179688	-49.176918
4285.156250	-49.209980
4286.132812	-48.874512
4287.109375	-49.197338
4288.085938	-48.266743
4289.062500	-47.939766
4290.039062	-49.101200
4291.015625	-50.685337
4291.992188	-48.803429
4292.968750	-49.355537
4293.945312	-49.252293
4294.921875	-47.941856
4295.898438	-48.978333
4296.875000	-49.320854
4297.851562	-49.332642
4298.828125	-49.942554
4299.804688	-51.096302
4300.781250	-50.191277
4301.757812	-47.464329
4302.734375	-49.224483
4303.710938	-50.457024
4304.687500	-49.597649
4305.664062	-50.385143
4306.640625	-50.546501
4307.617188	-51.043053
4308.593750	-52.030350
4309.570312	-51.012493
4310.546875	-50.950695
4311.523438	-50.869606
4312.500000	-51.342518
4313.476562	-51.148106
4314.453125	-51.338856
4315.429688	-49.923355
4316.406250	-50.378654
4317.382812	-49.873631
4318.359375	-50.683361
4319.335938	-51.078491
4320.312500	-50.473743
4321.289062	-50.753090
4322.265625	-52.672821
4323.242188	-51.160698
4324.218750	-51.907787
4325.195312	-50.822102
4326.171875	-50.784328
4327.148438	-50.264797
4328.125000	-51.759064
4329.101562	-50.903454
4330.078125	-51.296803
4331.054688	-51.893555
4332.031250	-50.241295
4333.007812	-51.190098
4333.984375	-51.473152
4334.960938	-51.870270
4335.937500	-51.094097
4336.914062	-50.492561
4337.890625	-50.909557
4338.867188	-52.948437
4339.843750	-51.450073
4340.820312	-51.865707
4341.796875	-52.478260
4342.773438	-51.272419
4343.750000	-51.149792
4344.726562	-51.921768
4345.703125	-53.642216
4346.679688	-52.564178
4347.656250	-51.466816
4348.632812	-50.024372
4349.609375	-51.067791
4350.585938	-51.315113
4351.562500	-51.756546
4352.539062	-52.094688
4353.515625	-51.563019
4354.492188	-51.913654
4355.468750	-51.155754
4356.445312	-51.647984
4357.421875	-52.592808
4358.398438	-52.247837
4359.375000	-51.258877
4360.351562	-50.774097
4361.328125	-51.897064
4362.304688	-51.284679
4363.281250	-51.564877
4364.257812	-50.766930
4365.234375	-50.073269
4366.210938	-51.508526
4367.187500	-51.374424
4368.164062	-51.248013
4369.140625	-51.136166
4370.117188	-50.658611
4371.093750	-51.151924
4372.070312	-51.466179
4373.046875	-50.476074
4374.023438	-51.721516
4375.000000	-51.435112
4375.976562	-49.526917
4376.953125	-50.361027
4377.929688	-50.012650
4378.906250	-50.676334
4379.882812	-51.053757
4380.859375	-51.150696
4381.835938	-51.082226
4382.812500	-49.755714
4383.789062	-50.064667
4384.765625	-50.785336
4385.742188	-50.900253
4386.718750	-50.447899
4387.695312	-49.625141
4388.671875	-50.208538
4389.648438	-48.911808
4390.625000	-50.056080
4391.601562	-49.853107
4392.578125	-49.467270
4393.554688	-49.350796
4394.531250	-49.341751
4395.507812	-48.493172
4396.484375	-49.998394
4397.460938	-49.087811
4398.437500	-49.735882
4399.414062	-48.459343
4400.390625	-49.052036
4401.367188	-49.930752
4402.343750	-49.380325
4403.320312	-49.480286
4404.296875	-49.393471
4405.273438	-49.755291
4406.250000	-47.406517
4407.226562	-48.528698
4408.203125	-47.615841
4409.179688	-47.134911
4410.156250	-47.748993
4411.132812	-48.081928
4412.109375	-49.709724
4413.085938	-47.663048
4414.062500	-48.526875
4415.039062	-48.813068
4416.015625	-46.909794
4416.992188	-47.282940
4417.968750	-46.392159
4418.945312	-46.053036
4419.921875	-45.377857
4420.898438	-46.830959
4421.875000	-46.085552
4422.851562	-47.631081
4423.828125	-46.165894
4424.804688	-45.436543
4425.781250	-46.985046
4426.757812	-46.375301
4427.734375	-44.354702
4428.710938	-46.392601
4429.687500	-45.628517
4430.664062	-45.914223
4431.640625	-45.930740
4432.617188	-45.483974
4433.593750	-45.901726
4434.570312	-43.621132
4435.546875	-43.638630
4436.523438	-44.247704
4437.500000	-44.728054
4438.476562	-44.885502
4439.453125	-44.776772
4440.429688	-44.454998
4441.406250	-44.286659
4442.382812	-43.704468
4443.359375	-45.916542
4444.335938	-43.829494
4445.312500	-42.276844
4446.289062	-42.928959
4447.265625	-43.406593
4448.242188	-43.912891
4449.218750	-42.451580
4450.195312	-43.289936
4451.171875	-43.318657
4452.148438	-43.627541
4453.125000	-41.765308
4454.101562	-44.390942
4455.078125	-42.763649
4456.054688	-43.171616
4457.031250	-43.611591
4458.007812	-42.756638
4458.984375	-41.300598
4459.960938	-42.669819
4460.937500	-43.749580
4461.914062	-43.419201
4462.890625	-43.889633
4463.867188	-42.963261
4464.843750	-42.060852
4465.820312	-42.806133
4466.796875	-42.032631
4467.773438	-43.992493
4468.750000	-42.676594
4469.726562	-42.859440
4470.703125	-44.606091
4471.679688	-43.645554
4472.656250	-45.008343
4473.632812	-43.904575
4474.609375	-44.560066
4475.585938	-45.311646
4476.562500	-44.040634
4477.539062	-45.281258
4478.515625	-44.099197
4479.492188	-45.053413
4480.468750	-45.291668
4481.445312	-46.901070
4482.421875	-44.401405
4483.398438	-45.553993
4484.375000	-45.673809
4485.351562	-44.925667
4486.328125	-44.810352
4487.304688	-47.205891
4488.281250	-45.710194
4489.257812	-44.696411
4490.234375	-46.862061
4491.210938	-44.762360
4492.187500	-46.939056
4493.164062	-46.091534
4494.140625	-47.480736
4495.117188	-45.945393
4496.093750	-48.306870
4497.070312	-45.419422
4498.046875	-46.526482
4499.023438	-47.027893
4500.000000	-47.513454
4500.976562	-48.014473
4501.953125	-48.184624
4502.929688	-46.210220
4503.906250	-47.316898
4504.882812	-47.905884
4505.859375	-48.844788
4506.835938	-47.781872
4507.812500	-47.693104
4508.789062	-48.531555
4509.765625	-47.820751
4510.742188	-46.725964
4511.718750	-48.146290
4512.695312	-48.433781
4513.671875	-48.221291
4514.648438	-48.322170
4515.625000	-48.551426
4516.601562	-50.572514
4517.578125	-49.002872
4518.554688	-49.843590
4519.531250	-49.667683
4520.507812	-49.727352
4521.484375	-49.897213
4522.460938	-49.428463
4523.437500	-49.300629
4524.414062	-50.591618
4525.390625	-50.108322
4526.367188	-48.990463
4527.343750	-49.411133
4528.320312	-49.887939
4529.296875	-49.391273
4530.273438	-49.892696
4531.250000	-49.437412
4532.226562	-50.258900
4533.203125	-49.065094
4534.179688	-49.150558
4535.156250	-49.446625
4536.132812	-48.788536
4537.109375	-51.314236
4538.085938	-50.436390
4539.062500	-48.968098
4540.039062	-49.388058
4541.015625	-50.576366
4541.992188	-49.617043
4542.968750	-49.350052
4543.945312	-49.319702
4544.921875	-52.084347
4545.898438	-50.138195
4546.875000	-49.924847
4547.851562	-50.103767
4548.828125	-50.555679
4549.804688	-51.482845
4550.781250	-50.076050
4551.757812	-50.667248
4552.734375	-49.842247
4553.710938	-49.978138
4554.687500	-50.479820
4555.664062	-49.827190
4556.640625	-49.590240
4557.617188	-51.777870
4558.593750	-49.529160
4559.570312	-50.587715
4560.546875	-50.095619
4561.523438	-49.679512
4562.500000	-49.962334
4563.476562	-50.644848
4564.453125	-50.628353
4565.429688	-51.006104
4566.406250	-51.272804
4567.382812	-49.598763
4568.359375	-50.582886
4569.335938	-50.215984
4570.312500	-49.073524
4571.289062	-50.076485
4572.265625	-49.981483
4573.242188	-50.878658
4574.218750	-51.125347
4575.195312	-50.535477
4576.171875	-50.114655
4577.148438	-50.887737
4578.125000	-51.727795
4579.101562	-50.417423
4580.078125	-50.452286
4581.054688	-51.050564
4582.031250	-50.508331
4583.007812	-50.365570
4583.984375	-50.277245
4584.960938	-50.094074
4585.937500	-49.154900
4586.914062	-50.568920
4587.890625	-49.981495
4588.867188	-51.103245
4589.843750	-50.451439
4590.820312	-51.882797
4591.796875	-48.630692
4592.773438	-49.154411
4593.750000	-50.205460
4594.726562	-49.608105
4595.703125	-49.275551
4596.679688	-48.584839
4597.656250	-49.650307
4598.632812	-48.755203
4599.609375	-49.250160
4600.585938	-49.952648
4601.562500	-48.443340
4602.539062	-50.039639
4603.515625	-49.425648
4604.492188	-50.057610
4605.468750	-48.989620
4606.445312	-48.629883
4607.421875	-50.370205
4608.398438	-48.892231
4609.375000	-48.316864
4610.351562	-48.463688
4611.328125	-49.862221
4612.304688	-49.295113
4613.281250	-48.642414
4614.257812	-48.264225
4615.234375	-47.826687
4616.210938	-48.611973
4617.187500	-48.597713
4618.164062	-48.233166
4619.140625	-48.563210
4620.117188	-47.111233
4621.093750	-47.118484
4622.070312	-47.832233
4623.046875	-47.262730
4624.023438	-47.447266
4625.000000	-47.864426
4625.976562	-48.196415
4626.953125	-47.166897
4627.929688	-47.539154
4628.906250	-46.363216
4629.882812	-46.911640
4630.859375	-48.619411
4631.835938	-48.023636
4632.812500	-46.784882
4633.789062	-47.484859
4634.765625	-46.077133
4635.742188	-46.838951
4636.718750	-46.619312
4637.695312	-46.358734
4638.671875	-46.210648
4639.648438	-45.583744
4640.625000	-45.689259
4641.601562	-46.172211
4642.578125	-45.689651
4643.554688	-44.802528
4644.531250	-44.591438
4645.507812	-44.829250
4646.484375	-45.459694
4647.460938	-45.145760
4648.437500	-44.806141
4649.414062	-44.734653
4650.390625	-44.292454
4651.367188	-44.171654
4652.343750	-43.921902
4653.320312	-43.306812
4654.296875	-43.792957
4655.273438	-45.038242
4656.250000	-44.260189
4657.226562	-43.900379
4658.203125	-43.968151
4659.179688	-43.310997
4660.156250	-44.867508
4661.132812	-44.203827
4662.109375	-44.235096
4663.085938	-43.800117
4664.062500	-44.731537
4665.039062	-43.741508
4666.015625	-43.014839
4666.992188	-42.673470
4667.968750	-42.752205
4668.945312	-44.309841
4669.921875	-44.125919
4670.898438	-44.051464
4671.875000	-43.590519
4672.851562	-44.436188
4673.828125	-42.048595
4674.804688	-42.903984
4675.781250	-42.314056
4676.757812	-42.377533
4677.734375	-42.677006
4678.710938	-42.823975
4679.687500	-42.514893
4680.664062	-43.180435
4681.640625	-43.202114
4682.617188	-43.309761
4683.593750	-44.418373
4684.570312	-42.421322
4685.546875	-42.797653
4686.523438	-43.005512
4687.500000	-43.142857
4688.476562	-42.611622
4689.453125	-43.043110
4690.429688	-43.718830
4691.406250	-43.047665
4692.382812	-43.819469
4693.359375	-42.834259
4694.335938	-44.014843
4695.312500	-44.005024
4696.289062	-45.423233
4697.265625	-43.991642
4698.242188	-43.126125
4699.218750	-44.204395
4700.195312	-44.172688
4701.171875	-44.471298
4702.148438	-45.692833
4703.125000	-45.836594
4704.101562	-43.296658
4705.078125	-44.298336
4706.054688	-43.722103
4707.031250	-44.172955
4708.007812	-45.596996
4708.984375	-44.664600
4709.960938	-44.359936
4710.937500	-46.231609
4711.914062	-45.720985
4712.890625	-46.068497
4713.867188	-45.844540
4714.843750	-45.092400
4715.820312	-45.067589
4716.796875	-45.088612
4717.773438	-45.002201
4718.750000	-46.120060
4719.726562	-47.689182
4720.703125	-48.085964
4721.679688	-46.548710
4722.656250	-48.183418
4723.632812	-46.543694
4724.609375	-46.600323
4725.585938	-46.315876
4726.562500	-46.991825
4727.539062	-47.139492
4728.515625	-46.597713
4729.492188	-47.430275
4730.468750	-48.615456
4731.445312	-47.629047
4732.421875	-47.162041
4733.398438	-46.007980
4734.375000	-46.330811
4735.351562	-47.669415
4736.328125	-47.200245
4737.304688	-47.645191
4738.281250	-46.692669
4739.257812	-46.768936
4740.234375	-47.984257
4741.210938	-47.889965
4742.187500	-47.319630
4743.164062	-48.135136
4744.140625	-48.152683
4745.117188	-49.505203
4746.093750	-47.460011
4747.070312	-47.857906
4748.046875	-47.170597
4749.023438	-46.902084
4750.000000	-46.624531
4750.976562	-48.728413
4751.953125	-48.285446
4752.929688	-47.866100
4753.906250	-48.127121
4754.882812	-48.816418
4755.859375	-49.485493
4756.835938	-48.200657
4757.812500	-49.135719
4758.789062	-49.195259
4759.765625	-49.320137
4760.742188	-48.968563
4761.718750	-49.716644
4762.695312	-48.552406
4763.671875	-49.175423
4764.648438	-49.222889
4765.625000	-48.608780
4766.601562	-47.692722
4767.578125	-48.284786
4768.554688	-48.803024
4769.531250	-47.930527
4770.507812	-48.494465
4771.484375	-48.845860
4772.460938	-49.319485
4773.437500	-48.476326
4774.414062	-48.949017
4775.390625	-49.413872
4776.367188	-47.619461
4777.343750	-48.198608
4778.320312	-48.837616
4779.296875	-46.417171
4780.273438	-48.419296
4781.250000	-49.904079
4782.226562	-49.059727
4783.203125	-49.550858
4784.179688	-50.311550
4785.156250	-49.242584
4786.132812	-48.797161
4787.109375	-47.992561
4788.085938	-49.041878
4789.062500	-48.701702
4790.039062	-49.725552
4791.015625	-49.312824
4791.992188	-49.756382
4792.968750	-49.188606
4793.945312	-48.157887
4794.921875	-48.267689
4795.898438	-47.790543
4796.875000	-48.375694
4797.851562	-47.959049
4798.828125	-46.975388
4799.804688	-49.195984
4800.781250	-48.375553
4801.757812	-48.505005
4802.734375	-48.244186
4803.710938	-48.674072
4804.687500	-48.739109
4805.664062	-48.807659
4806.640625	-47.995922
4807.617188	-47.082687
4808.593750	-47.687836
4809.570312	-47.716042
4810.546875	-47.782253
4811.523438	-47.992188
4812.500000	-48.578880
4813.476562	-47.867332
4814.453125	-48.252796
4815.429688	-47.713932
4816.406250	-49.464512
4817.382812	-48.150288
4818.359375	-48.599270
4819.335938	-47.474655
4820.312500	-47.411015
4821.289062	-46.809654
4822.265625	-47.059231
4823.242188	-48.323090
4824.218750	-47.252872
4825.195312	-48.242340
4826.171875	-47.250397
4827.148438	-46.813049
4828.125000	-47.947876
4829.101562	-47.160927
4830.078125	-46.509247
4831.054688	-47.644730
4832.031250	-47.245026
4833.007812	-46.581993
4833.984375	-45.896412
4834.960938	-46.800835
4835.937500	-46.590599
4836.914062	-45.738682
4837.890625	-46.465660
4838.867188	-46.520931
4839.843750	-45.935432
4840.820312	-46.328400
4841.796875	-45.762211
4842.773438	-46.810799
4843.750000	-47.310246
4844.726562	-46.423382
4845.703125	-46.489532
4846.679688	-48.169548
4847.656250	-45.586857
4848.632812	-44.772629
4849.609375	-44.142185
4850.585938	-45.108059
4851.562500	-45.465389
4852.539062	-44.891808
4853.515625	-45.398075
4854.492188	-44.697815
4855.468750	-44.646854
4856.445312	-44.139339
4857.421875	-44.852169
4858.398438	-43.906803
4859.375000	-42.747841
4860.351562	-45.309185
4861.328125	-43.702000
4862.304688	-45.389172
4863.281250	-45.442513
4864.257812	-44.816322
4865.234375	-44.205238
4866.210938	-45.403622
4867.187500	-44.162838
4868.164062	-44.064575
4869.140625	-43.743420
4870.117188	-44.157135
4871.093750	-42.933128
4872.070312	-44.173958
4873.046875	-44.164425
4874.023438	-43.893513
4875.000000	-44.273968
4875.976562	-43.888279
4876.953125	-42.940289
4877.929688	-42.700253
4878.906250	-42.284504
4879.882812	-43.715744
4880.859375	-43.103836
4881.835938	-42.649414
4882.812500	-43.938492
4883.789062	-43.496925
4884.765625	-43.152622
4885.742188	-44.125931
4886.718750	-42.634968
4887.695312	-42.138580
4888.671875	-42.771847
4889.648438	-42.624908
4890.625000	-43.051300
4891.601562	-42.742767
4892.578125	-41.393646
4893.554688	-43.413300
4894.531250	-44.483353
4895.507812	-42.882816
4896.484375	-43.384415
4897.460938	-43.220192
4898.437500	-43.009800
4899.414062	-42.329029
4900.390625	-43.419495
4901.367188	-43.785938
4902.343750	-42.072250
4903.320312	-41.767845
4904.296875	-42.496670
4905.273438	-42.580566
4906.250000	-43.079243
4907.226562	-42.727173
4908.203125	-43.445633
4909.179688	-43.100658
4910.156250	-43.491192
4911.132812	-43.582165
4912.109375	-43.262985
4913.085938	-42.682995
4914.062500	-42.870186
4915.039062	-43.985622
4916.015625	-43.747452
4916.992188	-43.154831
4917.968750	-43.636341
4918.945312	-43.726624
4919.921875	-42.725830
4920.898438	-44.436485
4921.875000	-44.964302
4922.851562	-43.703182
4923.828125	-43.744423
4924.804688	-44.168884
4925.781250	-44.343388
4926.757812	-44.685078
4927.734375	-43.192253
4928.710938	-44.828697
4929.687500	-44.090614
4930.664062	-44.326939
4931.640625	-44.870327
4932.617188	-44.988815
4933.593750	-43.417469
4934.570312	-44.663651
4935.546875	-45.266262
4936.523438	-45.629585
4937.500000	-44.900688
4938.476562	-45.678776
4939.453125	-44.217918
4940.429688	-44.259773
4941.406250	-45.612789
4942.382812	-44.591770
4943.359375	-44.690205
4944.335938	-45.307064
4945.312500	-45.862820
4946.289062	-44.568039
4947.265625	-45.353561
4948.242188	-44.764690
4949.218750	-45.441925
4950.195312	-45.187344
4951.171875	-45.429173
4952.148438	-45.175304
4953.125000	-44.694260
4954.101562	-45.577782
4955.078125	-45.622177
4956.054688	-45.774506
4957.031250	-44.514671
4958.007812	-44.714279
4958.984375	-45.730812
4959.960938	-46.659122
4960.937500	-45.976780
4961.914062	-47.162842
4962.890625	-45.774990
4963.867188	-45.672237
4964.843750	-45.170437
4965.820312	-46.798557
4966.796875	-46.324978
4967.773438	-45.739502
4968.750000	-46.189472
4969.726562	-46.742767
4970.703125	-45.603519
4971.679688	-48.606171
4972.656250	-45.375900
4973.632812	-46.570442
4974.609375	-47.120285
4975.585938	-46.429737
4976.562500	-46.825119
4977.539062	-46.309692
4978.515625	-47.120731
4979.492188	-46.471252
4980.468750	-46.456959
4981.445312	-46.688343
4982.421875	-46.911259
4983.398438	-47.023937
4984.375000	-46.829594
4985.351562	-46.176064
4986.328125	-46.025200
4987.304688	-46.292946
4988.281250	-45.500072
4989.257812	-45.829845
4990.234375	-45.672745
4991.210938	-45.325459
4992.187500	-46.192211
4993.164062	-47.537060
4994.140625	-47.760376
4995.117188	-47.120575
4996.093750	-47.183487
4997.070312	-47.024719
4998.046875	-45.191322
4999.023438	-47.488468
5000.000000	-46.065392
5000.976562	-46.309696
5001.953125	-45.855507
5002.929688	-46.224888
5003.906250	-47.587799
5004.882812	-46.826973
5005.859375	-47.860176
5006.835938	-46.364006
5007.812500	-46.506863
5008.789062	-46.642738
5009.765625	-47.047279
5010.742188	-45.892826
5011.718750	-46.580608
5012.695312	-46.893108
5013.671875	-46.653187
5014.648438	-47.315052
5015.625000	-46.259758
5016.601562	-45.689835
5017.578125	-46.946873
5018.554688	-47.299824
5019.531250	-46.136684
5020.507812	-45.618629
5021.484375	-47.816174
5022.460938	-47.518761
5023.437500	-47.090977
5024.414062	-45.699482
5025.390625	-46.708412
5026.367188	-47.899586
5027.343750	-47.749332
5028.320312	-45.564800
5029.296875	-46.677704
5030.273438	-46.484116
5031.250000	-47.019352
5032.226562	-46.522690
5033.203125	-45.356911
5034.179688	-44.785870
5035.156250	-45.117744
5036.132812	-46.910023
5037.109375	-45.351173
5038.085938	-46.367062
5039.062500	-45.095249
5040.039062	-45.774670
5041.015625	-45.298283
5041.992188	-46.122108
5042.968750	-44.917603
5043.945312	-46.034828
5044.921875	-45.085907
5045.898438	-45.233219
5046.875000	-45.182678
5047.851562	-45.705662
5048.828125	-45.741970
5049.804688	-45.772114
5050.781250	-44.711834
5051.757812	-44.738457
5052.734375	-45.066727
5053.710938	-44.659332
5054.687500	-45.501991
5055.664062	-45.080891
5056.640625	-44.770988
5057.617188	-45.971828
5058.593750	-44.954113
5059.570312	-45.811073
5060.546875	-44.807716
5061.523438	-44.725990
5062.500000	-45.596611
5063.476562	-44.893154
5064.453125	-45.885403
5065.429688	-45.604004
5066.406250	-44.493732
5067.382812	-44.880737
5068.359375	-45.067211
5069.335938	-45.113979
5070.312500	-43.993843
5071.289062	-44.388023
5072.265625	-45.026386
5073.242188	-45.283951
5074.218750	-43.986034
5075.195312	-44.879604
5076.171875	-44.338444
5077.148438	-45.368385
5078.125000	-44.273083
5079.101562	-44.819176
5080.078125	-43.120350
5081.054688	-44.938465
5082.031250	-44.061562
5083.007812	-45.565075
5083.984375	-43.833069
5084.960938	-43.890118
5085.937500	-44.367531
5086.914062	-43.850853
5087.890625	-44.231926
5088.867188	-43.585495
5089.843750	-44.205830
5090.820312	-43.906673
5091.796875	-43.191574
5092.773438	-44.058365
5093.750000	-44.108006
5094.726562	-44.145420
5095.703125	-44.538052
5096.679688	-44.602047
5097.656250	-45.272430
5098.632812	-44.462448
5099.609375	-43.564827
5100.585938	-45.062801
5101.562500	-44.528111
5102.539062	-44.147041
5103.515625	-42.949749
5104.492188	-43.157566
5105.468750	-43.513290
5106.445312	-44.090832
5107.421875	-44.945618
5108.398438	-43.629414
5109.375000	-43.033508
5110.351562	-43.657864
5111.328125	-43.017845
5112.304688	-42.977871
5113.281250	-43.028908
5114.257812	-43.674370
5115.234375	-43.946712
5116.210938	-44.319237
5117.187500	-43.374992
5118.164062	-43.451630
5119.140625	-45.144627
5120.117188	-44.221184
5121.093750	-43.820484
5122.070312	-44.131130
5123.046875	-43.826221
5124.023438	-44.604324
5125.000000	-42.799274
5125.976562	-43.879520
5126.953125	-45.262005
5127.929688	-43.823711
5128.906250	-44.042763
5129.882812	-44.042336
5130.859375	-44.059208
5131.835938	-44.635082
5132.812500	-44.742176
5133.789062	-43.066364
5134.765625	-44.344040
5135.742188	-44.379845
5136.718750	-43.633251
5137.695312	-44.039574
5138.671875	-43.149467
5139.648438	-44.370411
5140.625000	-43.491734
5141.601562	-43.527435
5142.578125	-44.181396
5143.554688	-45.273785
5144.531250	-44.749554
5145.507812	-43.088764
5146.484375	-43.687313
5147.460938	-43.125702
5148.437500	-43.525642
5149.414062	-44.907822
5150.390625	-44.647488
5151.367188	-44.057491
5152.343750	-44.679798
5153.320312	-44.544254
5154.296875	-43.101864
5155.273438	-43.454277
5156.250000	-43.231804
5157.226562	-44.715069
5158.203125	-45.377792
5159.179688	-44.465752
5160.156250	-44.049774
5161.132812	-44.296345
5162.109375	-43.996643
5163.085938	-43.135498
5164.062500	-42.444523
5165.039062	-43.653187
5166.015625	-44.413681
5166.992188	-42.604664
5167.968750	-43.383125
5168.945312	-43.927673
5169.921875	-44.263531
5170.898438	-44.758976
5171.875000	-43.488380
5172.851562	-43.177963
5173.828125	-44.551647
5174.804688	-44.043625
5175.781250	-45.369286
5176.757812	-46.487667
5177.734375	-44.565033
5178.710938	-43.501694
5179.687500	-45.218605
5180.664062	-43.824852
5181.640625	-44.133335
5182.617188	-45.370621
5183.593750	-44.873787
5184.570312	-44.568649
5185.546875	-44.122589
5186.523438	-43.783451
5187.500000	-43.474167
5188.476562	-45.251431
5189.453125	-43.875790
5190.429688	-45.068256
5191.406250	-43.707439
5192.382812	-43.484444
5193.359375	-44.819759
5194.335938	-45.490810
5195.312500	-44.103382
5196.289062	-43.801334
5197.265625	-44.876522
5198.242188	-44.944096
5199.218750	-43.599087
5200.195312	-43.347958
5201.171875	-44.647327
5202.148438	-44.838192
5203.125000	-45.360588
5204.101562	-44.831100
5205.078125	-44.099163
5206.054688	-44.507320
5207.031250	-44.692822
5208.007812	-44.565498
5208.984375	-43.837574
5209.960938	-45.360176
5210.937500	-44.399635
5211.914062	-45.497849
5212.890625	-45.893780
5213.867188	-44.252747
5214.843750	-45.288467
5215.820312	-44.911106
5216.796875	-45.113285
5217.773438	-45.804184
5218.750000	-44.795177
5219.726562	-44.923096
5220.703125	-44.536236
5221.679688	-43.872265
5222.656250	-44.915497
5223.632812	-45.083881
5224.609375	-43.452026
5225.585938	-45.209103
5226.562500	-45.949162
5227.539062	-43.764957
5228.515625	-44.133556
5229.492188	-46.186058
5230.468750	-46.338978
5231.445312	-45.261227
5232.421875	-45.255356
5233.398438	-45.208138
5234.375000	-45.785770
5235.351562	-44.324924
5236.328125	-43.006851
5237.304688	-44.392048
5238.281250	-46.352100
5239.257812	-45.591873
5240.234375	-44.543678
5241.210938	-45.811646
5242.187500	-44.553146
5243.164062	-45.873829
5244.140625	-46.141300
5245.117188	-46.065983
5246.093750	-45.395733
5247.070312	-45.677483
5248.046875	-45.333912
5249.023438	-46.620991
5250.000000	-45.444706
5250.976562	-45.910522
5251.953125	-46.954510
5252.929688	-45.235447
5253.906250	-46.600708
5254.882812	-45.910316
5255.859375	-44.760887
5256.835938	-45.272633
5257.812500	-45.841320
5258.789062	-45.109402
5259.765625	-45.168247
5260.742188	-45.141098
5261.718750	-45.668579
5262.695312	-46.058170
5263.671875	-45.752056
5264.648438	-47.040718
5265.625000	-47.305935
5266.601562	-44.502071
5267.578125	-43.984985
5268.554688	-46.827343
5269.531250	-46.138065
5270.507812	-44.864368
5271.484375	-45.991791
5272.460938	-45.105259
5273.437500	-47.389435
5274.414062	-46.394852
5275.390625	-44.957283
5276.367188	-46.116146
5277.343750	-46.850914
5278.320312	-46.177322
5279.296875	-46.092743
5280.273438	-46.413837
5281.250000	-45.648724
5282.226562	-46.035789
5283.203125	-46.463890
5284.179688	-45.582428
5285.156250	-45.153271
5286.132812	-45.779812
5287.109375	-46.648048
5288.085938	-45.662140
5289.062500	-45.641193
5290.039062	-45.041222
5291.015625	-45.501465
5291.992188	-45.337429
5292.968750	-45.573814
5293.945312	-45.709259
5294.921875	-46.280537
5295.898438	-45.748581
5296.875000	-45.992092
5297.851562	-45.493500
5298.828125	-45.939365
5299.804688	-46.173424
5300.781250	-46.596752
5301.757812	-46.185608
5302.734375	-44.761543
5303.710938	-46.469826
5304.687500	-46.050175
5305.664062	-46.110821
5306.640625	-46.274181
5307.617188	-45.149418
5308.593750	-46.366455
5309.570312	-44.883060
5310.546875	-44.881294
5311.523438	-46.014618
5312.500000	-47.287148
5313.476562	-46.090195
5314.453125	-46.146008
5315.429688	-46.527649
5316.406250	-46.490719
5317.382812	-45.838833
5318.359375	-46.054485
5319.335938	-45.705433
5320.312500	-46.252216
5321.289062	-44.580772
5322.265625	-45.664299
5323.242188	-47.001957
5324.218750	-46.012188
5325.195312	-45.274837
5326.171875	-44.574440
5327.148438	-45.769974
5328.125000	-45.966640
5329.101562	-44.763851
5330.078125	-46.290516
5331.054688	-46.368576
5332.031250	-45.412560
5333.007812	-46.452942
5333.984375	-46.571510
5334.960938	-45.415886
5335.937500	-45.818089
5336.914062	-44.646652
5337.890625	-45.709118
5338.867188	-45.607121
5339.843750	-46.176884
5340.820312	-45.510853
5341.796875	-45.897228
5342.773438	-46.172115
5343.750000	-45.648113
5344.726562	-46.184547
5345.703125	-45.457081
5346.679688	-46.160194
5347.656250	-46.606483
5348.632812	-45.343479
5349.609375	-45.848946
5350.585938	-43.895756
5351.562500	-45.121750
5352.539062	-45.640469
5353.515625	-44.463043
5354.492188	-44.641590
5355.468750	-45.231327
5356.445312	-44.651272
5357.421875	-46.398605
5358.398438	-44.367897
5359.375000	-44.303722
5360.351562	-44.412415
5361.328125	-44.231583
5362.304688	-45.285110
5363.281250	-44.022644
5364.257812	-44.477215
5365.234375	-44.842922
5366.210938	-45.199364
5367.187500	-44.243202
5368.164062	-44.675064
5369.140625	-44.345009
5370.117188	-43.948242
5371.093750	-43.807655
5372.070312	-44.948429
5373.046875	-45.220261
5374.023438	-45.245018
5375.000000	-44.614330
5375.976562	-43.596394
5376.953125	-44.116875
5377.929688	-44.103031
5378.906250	-44.221161
5379.882812	-44.138763
5380.859375	-42.370659
5381.835938	-44.073898
5382.812500	-43.823326
5383.789062	-43.992256
5384.765625	-43.991493
5385.742188	-44.086578
5386.718750	-44.496319
5387.695312	-44.670399
5388.671875	-43.860325
5389.648438	-43.643955
5390.625000	-44.768036
5391.601562	-43.461040
5392.578125	-43.693703
5393.554688	-45.363743
5394.531250	-44.019978
5395.507812	-43.381660
5396.484375	-43.783772
5397.460938	-44.881718
5398.437500	-44.278412
5399.414062	-43.336803
5400.390625	-43.037773
5401.367188	-44.091061
5402.343750	-43.573895
5403.320312	-44.857861
5404.296875	-44.152782
5405.273438	-43.889072
5406.250000	-43.184635
5407.226562	-44.159485
5408.203125	-44.643482
5409.179688	-44.658928
5410.156250	-44.055904
5411.132812	-44.903522
5412.109375	-43.490822
5413.085938	-44.015289
5414.062500	-43.657166
5415.039062	-44.192528
5416.015625	-43.889771
5416.992188	-43.567081
5417.968750	-44.588196
5418.945312	-44.729774
5419.921875	-45.602058
5420.898438	-44.598866
5421.875000	-44.333317
5422.851562	-44.592129
5423.828125	-45.034275
5424.804688	-44.619850
5425.781250	-44.452568
5426.757812	-44.679222
5427.734375	-45.203850
5428.710938	-44.940559
5429.687500	-45.634033
5430.664062	-46.287449
5431.640625	-45.861496
5432.617188	-45.514950
5433.593750	-45.416435
5434.570312	-45.329174
5435.546875	-46.038689
5436.523438	-45.587067
5437.500000	-45.405804
5438.476562	-46.553143
5439.453125	-45.335930
5440.429688	-44.586674
5441.406250	-45.983631
5442.382812	-44.942810
5443.359375	-46.711052
5444.335938	-45.786293
5445.312500	-45.054298
5446.289062	-46.557159
5447.265625	-46.306065
5448.242188	-46.063324
5449.218750	-46.991661
5450.195312	-46.220638
5451.171875	-46.558895
5452.148438	-47.202038
5453.125000	-46.680973
5454.101562	-48.684475
5455.078125	-47.490456
5456.054688	-48.047604
5457.031250	-46.426414
5458.007812	-46.102654
5458.984375	-47.646587
5459.960938	-47.651680
5460.937500	-47.597393
5461.914062	-47.636955
5462.890625	-46.611465
5463.867188	-47.467712
5464.843750	-48.236324
5465.820312	-47.317482
5466.796875	-47.049103
5467.773438	-47.849472
5468.750000	-47.277000
5469.726562	-47.742832
5470.703125	-47.252411
5471.679688	-48.146347
5472.656250	-47.473064
5473.632812	-47.931995
5474.609375	-48.247559
5475.585938	-47.573559
5476.562500	-48.468456
5477.539062	-47.801952
5478.515625	-47.221699
5479.492188	-48.022736
5480.468750	-48.820362
5481.445312	-47.461895
5482.421875	-47.873417
5483.398438	-49.071587
5484.375000	-48.168476
5485.351562	-48.094795
5486.328125	-48.451397
5487.304688	-48.397820
5488.281250	-49.123158
5489.257812	-49.007282
5490.234375	-49.172836
5491.210938	-48.117733
5492.187500	-48.623520
5493.164062	-48.006638
5494.140625	-48.194656
5495.117188	-49.119438
5496.093750	-49.170265
5497.070312	-49.464748
5498.046875	-48.526211
5499.023438	-47.332218
5500.000000	-48.746078
5500.976562	-48.730705
5501.953125	-48.698166
5502.929688	-49.991749
5503.906250	-49.196529
5504.882812	-49.610886
5505.859375	-49.074223
5506.835938	-48.647614
5507.812500	-49.234161
5508.789062	-49.476616
5509.765625	-49.347279
5510.742188	-49.187122
5511.718750	-48.799412
5512.695312	-49.205353
5513.671875	-49.532810
5514.648438	-49.288704
5515.625000	-48.837814
5516.601562	-47.796982
5517.578125	-49.703838
5518.554688	-49.479729
5519.531250	-48.660545
5520.507812	-49.636833
5521.484375	-48.679184
5522.460938	-49.355484
5523.437500	-48.524303
5524.414062	-48.526604
5525.390625	-48.838318
5526.367188	-47.722240
5527.343750	-48.586308
5528.320312	-48.750347
5529.296875	-48.377304
5530.273438	-49.956932
5531.250000	-49.549202
5532.226562	-49.090595
5533.203125	-49.549751
5534.179688	-48.485382
5535.156250	-48.936626
5536.132812	-49.016266
5537.109375	-49.450283
5538.085938	-48.236198
5539.062500	-49.631737
5540.039062	-47.741215
5541.015625	-48.811432
5541.992188	-48.432003
5542.968750	-48.943752
5543.945312	-48.501751
5544.921875	-49.433235
5545.898438	-48.854866
5546.875000	-50.133076
5547.851562	-48.682732
5548.828125	-47.498596
5549.804688	-48.656830
5550.781250	-47.912773
5551.757812	-48.446224
5552.734375	-49.172211
5553.710938	-48.630512
5554.687500	-46.921833
5555.664062	-48.134277
5556.640625	-48.562668
5557.617188	-47.800449
5558.593750	-47.313778
5559.570312	-49.268005
5560.546875	-47.608223
5561.523438	-48.226444
5562.500000	-48.589481
5563.476562	-48.516472
5564.453125	-47.226910
5565.429688	-47.619305
5566.406250	-47.992706
5567.382812	-47.270573
5568.359375	-47.835442
5569.335938	-46.860146
5570.312500	-49.343552
5571.289062	-47.474140
5572.265625	-47.507545
5573.242188	-48.140694
5574.218750	-46.384918
5575.195312	-45.864216
5576.171875	-47.817989
5577.148438	-47.969151
5578.125000	-47.486095
5579.101562	-46.883781
5580.078125	-46.281067
5581.054688	-46.376297
5582.031250	-47.120224
5583.007812	-46.394165
5583.984375	-45.712826
5584.960938	-45.914440
5585.937500	-46.769707
5586.914062	-45.515652
5587.890625	-45.981579
5588.867188	-46.406342
5589.843750	-47.099541
5590.820312	-45.071178
5591.796875	-45.988792
5592.773438	-45.688557
5593.750000	-46.324211
5594.726562	-44.493359
5595.703125	-46.174900
5596.679688	-46.301113
5597.656250	-45.460957
5598.632812	-46.091026
5599.609375	-44.766010
5600.585938	-44.276077
5601.562500	-44.590900
5602.539062	-46.234180
5603.515625	-46.993095
5604.492188	-46.491661
5605.468750	-44.620308
5606.445312	-45.285175
5607.421875	-45.449100
5608.398438	-43.723614
5609.375000	-44.178589
5610.351562	-44.831650
5611.328125	-44.688557
5612.304688	-45.854656
5613.281250	-44.514324
5614.257812	-43.309441
5615.234375	-43.446911
5616.210938	-44.853737
5617.187500	-45.804428
5618.164062	-45.240597
5619.140625	-45.110462
5620.117188	-44.934315
5621.093750	-45.255409
5622.070312	-45.950562
5623.046875	-44.592884
5624.023438	-44.226246
5625.000000	-46.602463
5625.976562	-45.147202
5626.953125	-44.523335
5627.929688	-44.895958
5628.906250	-45.180992
5629.882812	-45.940323
5630.859375	-45.706024
5631.835938	-45.112778
5632.812500	-47.097431
5633.789062	-47.074234
5634.765625	-44.806870
5635.742188	-45.677345
5636.718750	-46.495068
5637.695312	-47.058220
5638.671875	-46.678642
5639.648438	-45.187462
5640.625000	-45.470985
5641.601562	-45.735584
5642.578125	-45.534546
5643.554688	-46.445255
5644.531250	-45.813156
5645.507812	-45.805206
5646.484375	-47.355148
5647.460938	-47.749943
5648.437500	-46.714874
5649.414062	-47.572586
5650.390625	-47.048595
5651.367188	-47.200512
5652.343750	-47.450642
5653.320312	-46.856205
5654.296875	-46.724899
5655.273438	-47.405853
5656.250000	-47.864246
5657.226562	-46.466274
5658.203125	-47.298157
5659.179688	-47.661652
5660.156250	-47.956181
5661.132812	-48.966995
5662.109375	-49.460278
5663.085938	-48.872196
5664.062500	-49.094662
5665.039062	-49.127155
5666.015625	-48.618073
5666.992188	-49.175320
5667.968750	-48.598007
5668.945312	-49.131645
5669.921875	-48.327141
5670.898438	-48.830639
5671.875000	-51.040817
5672.851562	-50.253868
5673.828125	-50.067184
5674.804688	-49.411564
5675.781250	-49.796200
5676.757812	-48.951134
5677.734375	-50.194923
5678.710938	-48.905827
5679.687500	-50.286228
5680.664062	-50.801826
5681.640625	-50.605137
5682.617188	-49.783348
5683.593750	-49.626198
5684.570312	-50.359608
5685.546875	-49.170925
5686.523438	-49.989265
5687.500000	-50.539291
5688.476562	-51.958149
5689.453125	-49.892330
5690.429688	-50.577309
5691.406250	-51.114033
5692.382812	-50.385597
5693.359375	-51.725178
5694.335938	-50.261978
5695.312500	-50.518284
5696.289062	-50.773544
5697.265625	-50.625725
5698.242188	-51.946705
5699.218750	-49.954479
5700.195312	-49.957806
5701.171875	-50.919437
5702.148438	-51.818062
5703.125000	-51.306732
5704.101562	-51.122849
5705.078125	-52.182938
5706.054688	-52.194241
5707.031250	-51.818619
5708.007812	-50.983017
5708.984375	-51.381191
5709.960938	-50.927433
5710.937500	-50.715530
5711.914062	-52.471687
5712.890625	-51.024883
5713.867188	-51.623905
5714.843750	-50.277157
5715.820312	-51.337139
5716.796875	-50.473740
5717.773438	-52.099430
5718.750000	-51.714607
5719.726562	-51.644363
5720.703125	-53.875889
5721.679688	-50.692444
5722.656250	-50.997425
5723.632812	-50.788628
5724.609375	-51.430344
5725.585938	-50.574345
5726.562500	-51.614700
5727.539062	-51.947300
5728.515625	-52.707760
5729.492188	-51.715412
5730.468750	-51.788807
5731.445312	-51.442318
5732.421875	-52.382809
5733.398438	-50.870312
5734.375000	-52.566597
5735.351562	-53.034309
5736.328125	-51.670006
5737.304688	-51.678883
5738.281250	-52.812214
5739.257812	-52.341217
5740.234375	-50.595154
5741.210938	-51.976067
5742.187500	-52.777550
5743.164062	-51.305943
5744.140625	-50.061050
5745.117188	-53.072639
5746.093750	-50.476112
5747.070312	-52.321602
5748.046875	-50.981247
5749.023438	-51.254780
5750.000000	-50.377815
5750.976562	-51.328686
5751.953125	-52.169018
5752.929688	-51.742142
5753.906250	-52.848038
5754.882812	-50.790653
5755.859375	-50.777603
5756.835938	-50.664452
5757.812500	-51.565475
5758.789062	-51.422276
5759.765625	-50.606052
5760.742188	-51.951283
5761.718750	-50.685863
5762.695312	-51.637836
5763.671875	-50.785736
5764.648438	-51.052929
5765.625000	-51.245846
5766.601562	-51.853092
5767.578125	-51.244816
5768.554688	-50.899471
5769.531250	-50.873672
5770.507812	-50.707165
5771.484375	-53.334457
5772.460938	-50.852108
5773.437500	-51.979191
5774.414062	-50.439842
5775.390625	-51.982250
5776.367188	-50.814720
5777.343750	-51.110271
5778.320312	-50.909927
5779.296875	-51.383629
5780.273438	-51.156303
5781.250000	-50.757950
5782.226562	-50.344032
5783.203125	-49.186539
5784.179688	-48.295006
5785.156250	-49.166878
5786.132812	-48.970936
5787.109375	-49.900581
5788.085938	-49.871964
5789.062500	-49.310360
5790.039062	-49.707748
5791.015625	-49.841213
5791.992188	-49.516811
5792.968750	-48.978012
5793.945312	-49.381542
5794.921875	-49.227905
5795.898438	-49.856598
5796.875000	-48.823544
5797.851562	-48.426655
5798.828125	-48.927509
5799.804688	-49.564880
5800.781250	-47.847805
5801.757812	-49.225719
5802.734375	-48.917255
5803.710938	-48.144550
5804.687500	-48.816139
5805.664062	-49.102211
5806.640625	-47.591507
5807.617188	-49.123898
5808.593750	-47.566528
5809.570312	-47.660774
5810.546875	-48.763329
5811.523438	-47.469585
5812.500000	-47.458855
5813.476562	-47.752953
5814.453125	-47.591595
5815.429688	-47.083874
5816.406250	-48.358982
5817.382812	-46.387447
5818.359375	-46.316551
5819.335938	-47.139435
5820.312500	-46.851616
5821.289062	-48.582726
5822.265625	-48.427479
5823.242188	-47.019783
5824.218750	-45.739975
5825.195312	-47.347134
5826.171875	-46.312885
5827.148438	-46.229359
5828.125000	-46.346977
5829.101562	-47.106026
5830.078125	-46.487141
5831.054688	-45.129250
5832.031250	-46.812458
5833.007812	-46.302021
5833.984375	-46.282646
5834.960938	-47.431190
5835.937500	-47.659714
5836.914062	-47.030418
5837.890625	-46.611088
5838.867188	-45.856144
5839.843750	-45.929073
5840.820312	-46.227345
5841.796875	-46.226646
5842.773438	-47.078136
5843.750000	-45.523396
5844.726562	-44.941406
5845.703125	-47.826435
5846.679688	-47.287106
5847.656250	-47.630642
5848.632812	-47.391212
5849.609375	-46.786446
5850.585938	-47.400398
5851.562500	-48.390999
5852.539062	-47.568916
5853.515625	-47.517754
5854.492188	-45.893021
5855.468750	-47.529427
5856.445312	-48.573494
5857.421875	-49.812405
5858.398438	-48.349022
5859.375000	-49.209518
5860.351562	-47.974091
5861.328125	-48.997974
5862.304688	-48.802742
5863.281250	-47.368896
5864.257812	-49.389515
5865.234375	-48.436676
5866.210938	-48.427670
5867.187500	-49.727024
5868.164062	-48.479408
5869.140625	-49.181702
5870.117188	-48.181953
5871.093750	-51.504753
5872.070312	-49.701015
5873.046875	-50.653687
5874.023438	-51.672501
5875.000000	-49.959591
5875.976562	-49.860752
5876.953125	-50.961517
5877.929688	-49.246002
5878.906250	-50.552620
5879.882812	-50.139439
5880.859375	-50.166904
5881.835938	-52.108704
5882.812500	-50.680660
5883.789062	-50.006260
5884.765625	-51.431625
5885.742188	-50.745407
5886.718750	-50.590557
5887.695312	-51.206429
5888.671875	-51.480911
5889.648438	-50.931698
5890.625000	-51.868626
5891.601562	-52.115944
5892.578125	-51.201355
5893.554688	-52.079899
5894.531250	-52.519093
5895.507812	-51.600868
5896.484375	-52.057793
5897.460938	-52.922890
5898.437500	-52.649582
5899.414062	-50.885899
5900.390625	-52.722229
5901.367188	-52.505413
5902.343750	-53.873760
5903.320312	-52.852642
5904.296875	-52.610317
5905.273438	-53.101585
5906.250000	-52.640728
5907.226562	-52.163643
5908.203125	-53.142555
5909.179688	-53.731998
5910.156250	-52.529308
5911.132812	-53.392693
5912.109375	-53.801559
5913.085938	-53.536179
5914.062500	-51.992172
5915.039062	-54.099438
5916.015625	-53.271442
5916.992188	-53.426624
5917.968750	-52.915665
5918.945312	-53.055042
5919.921875	-52.212070
5920.898438	-53.243458
5921.875000	-54.123219
5922.851562	-54.166939
5923.828125	-53.494148
5924.804688	-54.009598
5925.781250	-54.305168
5926.757812	-54.447559
5927.734375	-53.823269
5928.710938	-54.131859
5929.687500	-54.361607
5930.664062	-55.312492
5931.640625	-54.056358
5932.617188	-53.605953
5933.593750	-55.128345
5934.570312	-53.802731
5935.546875	-53.920712
5936.523438	-54.311081
5937.500000	-53.190479
5938.476562	-54.092129
5939.453125	-54.315269
5940.429688	-52.030758
5941.406250	-53.473736
5942.382812	-54.647751
5943.359375	-54.118248
5944.335938	-53.232197
5945.312500	-54.115665
5946.289062	-53.843086
5947.265625	-53.826870
5948.242188	-54.431110
5949.218750	-54.094448
5950.195312	-54.512280
5951.171875	-54.309456
5952.148438	-53.365032
5953.125000	-54.838837
5954.101562	-53.817944
5955.078125	-53.805450
5956.054688	-53.585739
5957.031250	-53.852287
5958.007812	-54.552803
5958.984375	-54.906982
5959.960938	-53.192345
5960.937500	-53.977512
5961.914062	-53.838036
5962.890625	-54.039402
5963.867188	-54.239872
5964.843750	-55.104652
5965.820312	-54.355782
5966.796875	-53.123814
5967.773438	-54.027668
5968.750000	-55.138058
5969.726562	-53.744404
5970.703125	-54.616230
5971.679688	-54.228176
5972.656250	-53.572147
5973.632812	-54.136902
5974.609375	-53.514053
5975.585938	-53.691624
5976.562500	-54.610420
5977.539062	-53.835163
5978.515625	-55.100262
5979.492188	-54.239826
5980.468750	-55.279709
5981.445312	-53.691422
5982.421875	-53.123463
5983.398438	-53.827431
5984.375000	-53.584129
5985.351562	-53.228619
5986.328125	-53.207188
5987.304688	-54.417988
5988.281250	-52.960300
5989.257812	-53.817245
5990.234375	-54.403770
5991.210938	-54.000717
5992.187500	-52.628967
5993.164062	-52.887970
5994.140625	-53.120731
5995.117188	-53.832291
5996.093750	-52.556919
5997.070312	-52.759323
5998.046875	-53.130585
5999.023438	-54.570309
6000.000000	-53.756302
6000.976562	-53.531033
6001.953125	-52.303722
6002.929688	-51.362232
6003.906250	-52.543419
6004.882812	-53.720703
6005.859375	-54.165295
6006.835938	-51.054310
6007.812500	-52.438095
6008.789062	-51.851078
6009.765625	-51.883633
6010.742188	-52.107697
6011.718750	-52.297516
6012.695312	-50.549110
6013.671875	-52.856243
6014.648438	-52.397232
6015.625000	-50.734482
6016.601562	-51.311703
6017.578125	-51.598686
6018.554688	-51.978291
6019.531250	-50.394146
6020.507812	-50.801411
6021.484375	-49.841518
6022.460938	-50.768227
6023.437500	-51.961170
6024.414062	-50.084339
6025.390625	-51.987736
6026.367188	-50.075787
6027.343750	-50.677288
6028.320312	-50.218273
6029.296875	-49.676304
6030.273438	-50.723083
6031.250000	-50.662045
6032.226562	-49.357258
6033.203125	-49.765678
6034.179688	-49.638195
6035.156250	-48.979847
6036.132812	-49.340363
6037.109375	-50.503086
6038.085938	-49.987705
6039.062500	-49.452190
6040.039062	-49.255417
6041.015625	-48.964878
6041.992188	-48.009396
6042.968750	-48.411686
6043.945312	-48.575035
6044.921875	-47.938168
6045.898438	-49.225529
6046.875000	-48.934246
6047.851562	-48.531120
6048.828125	-48.378387
6049.804688	-47.938148
6050.781250	-47.548721
6051.757812	-48.822620
6052.734375	-48.614651
6053.710938	-48.577110
6054.687500	-48.865696
6055.664062	-48.262737
6056.640625	-49.108761
6057.617188	-48.175240
6058.593750	-48.273701
6059.570312	-48.099590
6060.546875	-48.246330
6061.523438	-47.500008
6062.500000	-48.021660
6063.476562	-49.798950
6064.453125	-48.039055
6065.429688	-47.838806
6066.406250	-49.044350
6067.382812	-49.510071
6068.359375	-48.297081
6069.335938	-48.640926
6070.312500	-48.297764
6071.289062	-49.349449
6072.265625	-49.799114
6073.242188	-50.786823
6074.218750	-49.046822
6075.195312	-50.843754
6076.171875	-50.499336
6077.148438	-49.827740
6078.125000	-49.984459
6079.101562	-49.570370
6080.078125	-50.872059
6081.054688	-50.083462
6082.031250	-50.635693
6083.007812	-49.763206
6083.984375	-50.393051
6084.960938	-50.073730
6085.937500	-51.893394
6086.914062	-51.119938
6087.890625	-51.116859
6088.867188	-51.073711
6089.843750	-51.146641
6090.820312	-52.377537
6091.796875	-51.872658
6092.773438	-52.424465
6093.750000	-52.346706
6094.726562	-52.311394
6095.703125	-52.221756
6096.679688	-50.962925
6097.656250	-52.538158
6098.632812	-52.001472
6099.609375	-53.446991
6100.585938	-53.241447
6101.562500	-54.223858
6102.539062	-53.769897
6103.515625	-52.996052
6104.492188	-52.250736
6105.468750	-53.648087
6106.445312	-54.018551
6107.421875	-52.809296
6108.398438	-53.076561
6109.375000	-53.843376
6110.351562	-53.611954
6111.328125	-54.051685
6112.304688	-53.974129
6113.281250	-53.940121
6114.257812	-54.671215
6115.234375	-54.529190
6116.210938	-54.332081
6117.187500	-53.172314
6118.164062	-53.463436
6119.140625	-54.184639
6120.117188	-54.176498
6121.093750	-55.060886
6122.070312	-54.054668
6123.046875	-54.033302
6124.023438	-53.731918
6125.000000	-55.892738
6125.976562	-55.176773
6126.953125	-54.916199
6127.929688	-55.420071
6128.906250	-55.290203
6129.882812	-53.733627
6130.859375	-55.212757
6131.835938	-55.573662
6132.812500	-55.922878
6133.789062	-56.030025
6134.765625	-56.476166
6135.742188	-56.162415
6136.718750	-55.785374
6137.695312	-55.698807
6138.671875	-56.956955
6139.648438	-55.937820
6140.625000	-56.451233
6141.601562	-57.286640
6142.578125	-56.279465
6143.554688	-55.934223
6144.531250	-55.764545
6145.507812	-56.239944
6146.484375	-55.281170
6147.460938	-56.409081
6148.437500	-56.320076
6149.414062	-56.366512
6150.390625	-55.844753
6151.367188	-56.585819
6152.343750	-57.227936
6153.320312	-57.028656
6154.296875	-57.633366
6155.273438	-56.623211
6156.250000	-57.190487
6157.226562	-57.708046
6158.203125	-56.618320
6159.179688	-57.554684
6160.156250	-57.755074
6161.132812	-56.926231
6162.109375	-55.550812
6163.085938	-56.336803
6164.062500	-56.895168
6165.039062	-56.381256
6166.015625	-56.850887
6166.992188	-56.956814
6167.968750	-55.810982
6168.945312	-56.366333
6169.921875	-56.235130
6170.898438	-57.812817
6171.875000	-57.388317
6172.851562	-57.680531
6173.828125	-56.502384
6174.804688	-55.276840
6175.781250	-56.232628
6176.757812	-56.693966
6177.734375	-55.623989
6178.710938	-56.273010
6179.687500	-56.816593
6180.664062	-56.292683
6181.640625	-57.520870
6182.617188	-56.344315
6183.593750	-57.358894
6184.570312	-57.202393
6185.546875	-55.643803
6186.523438	-56.898952
6187.500000	-56.688255
6188.476562	-56.769642
6189.453125	-56.166401
6190.429688	-57.028278
6191.406250	-55.174667
6192.382812	-58.068996
6193.359375	-55.744392
6194.335938	-55.972107
6195.312500	-56.416740
6196.289062	-55.708923
6197.265625	-57.170719
6198.242188	-55.870651
6199.218750	-55.726494
6200.195312	-54.932888
6201.171875	-56.722298
6202.148438	-56.321991
6203.125000	-56.657402
6204.101562	-56.018669
6205.078125	-56.384598
6206.054688	-56.205833
6207.031250	-55.936264
6208.007812	-56.225899
6208.984375	-55.909595
6209.960938	-56.099461
6210.937500	-56.315147
6211.914062	-56.962605
6212.890625	-55.320137
6213.867188	-55.417568
6214.843750	-55.057850
6215.820312	-55.612061
6216.796875	-55.637505
6217.773438	-56.074635
6218.750000	-56.043411
6219.726562	-55.665470
6220.703125	-55.117847
6221.679688	-54.471680
6222.656250	-55.279613
6223.632812	-55.344170
6224.609375	-56.243168
6225.585938	-55.766800
6226.562500	-54.947453
6227.539062	-55.027710
6228.515625	-54.148220
6229.492188	-54.890308
6230.468750	-54.574974
6231.445312	-53.790752
6232.421875	-54.863499
6233.398438	-54.423580
6234.375000	-54.248013
6235.351562	-53.188423
6236.328125	-53.356010
6237.304688	-55.002625
6238.281250	-53.998257
6239.257812	-53.220329
6240.234375	-52.999187
6241.210938	-52.738144
6242.187500	-52.562019
6243.164062	-53.096809
6244.140625	-52.138893
6245.117188	-53.597855
6246.093750	-52.929283
6247.070312	-53.170273
6248.046875	-52.461163
6249.023438	-52.582306
6250.000000	-51.632332
6250.976562	-53.207321
6251.953125	-53.907108
6252.929688	-54.186348
6253.906250	-51.149010
6254.882812	-51.984634
6255.859375	-51.908291
6256.835938	-51.771896
6257.812500	-52.382885
6258.789062	-51.482487
6259.765625	-51.383579
6260.742188	-50.934990
6261.718750	-51.013760
6262.695312	-51.586658
6263.671875	-51.769501
6264.648438	-50.907993
6265.625000	-52.770531
6266.601562	-50.993683
6267.578125	-49.944035
6268.554688	-50.174828
6269.531250	-51.521767
6270.507812	-51.146042
6271.484375	-49.787483
6272.460938	-50.442070
6273.437500	-50.291473
6274.414062	-50.551796
6275.390625	-50.874115
6276.367188	-49.899502
6277.343750	-50.727779
6278.320312	-50.093967
6279.296875	-50.400749
6280.273438	-51.054272
6281.250000	-51.267250
6282.226562	-51.367043
6283.203125	-50.738327
6284.179688	-50.687611
6285.156250	-51.121899
6286.132812	-52.234619
6287.109375	-51.629486
6288.085938	-51.291996
6289.062500	-51.238667
6290.039062	-51.058838
6291.015625	-52.514492
6291.992188	-51.499748
6292.968750	-51.975384
6293.945312	-51.734612
6294.921875	-52.220654
6295.898438	-52.280224
6296.875000	-51.924782
6297.851562	-50.473141
6298.828125	-52.103165
6299.804688	-52.304836
6300.781250	-52.008541
6301.757812	-52.171181
6302.734375	-53.902679
6303.710938	-52.738815
6304.687500	-52.661926
6305.664062	-53.004421
6306.640625	-53.187569
6307.617188	-52.606915
6308.593750	-54.356991
6309.570312	-53.717545
6310.546875	-54.023739
6311.523438	-53.382221
6312.500000	-53.962231
6313.476562	-55.111980
6314.453125	-56.126350
6315.429688	-56.307301
6316.406250	-54.496208
6317.382812	-55.114754
6318.359375	-55.767502
6319.335938	-57.130539
6320.312500	-56.149109
6321.289062	-56.388390
6322.265625	-56.363976
6323.242188	-55.114830
6324.218750	-56.577751
6325.195312	-55.573093
6326.171875	-57.944862
6327.148438	-57.365540
6328.125000	-57.246365
6329.101562	-56.236687
6330.078125	-56.687275
6331.054688	-55.215939
6332.031250	-56.075100
6333.007812	-55.448727
6333.984375	-56.560268
6334.960938	-56.660397
6335.937500	-56.920673
6336.914062	-56.620533
6337.890625	-56.388515
6338.867188	-55.893982
6339.843750	-55.799931
6340.820312	-57.122837
6341.796875	-56.848690
6342.773438	-57.146126
6343.750000	-59.182823
6344.726562	-57.883892
6345.703125	-56.537186
6346.679688	-57.764309
6347.656250	-58.841755
6348.632812	-56.225964
6349.609375	-58.301121
6350.585938	-57.213127
6351.562500	-59.036728
6352.539062	-59.501312
6353.515625	-58.891544
6354.492188	-58.792332
6355.468750	-58.223263
6356.445312	-58.895290
6357.421875	-58.518112
6358.398438	-57.917812
6359.375000	-58.218826
6360.351562	-57.311516
6361.328125	-59.178150
6362.304688	-58.531338
6363.281250	-58.081348
6364.257812	-59.856968
6365.234375	-59.157391
6366.210938	-58.966103
6367.187500	-59.304817
6368.164062	-59.662086
6369.140625	-60.862282
6370.117188	-60.119202
6371.093750	-58.708851
6372.070312	-58.765095
6373.046875	-60.188274
6374.023438	-60.322426
6375.000000	-58.997997
6375.976562	-58.793213
6376.953125	-58.808304
6377.929688	-59.159897
6378.906250	-58.575417
6379.882812	-58.547062
6380.859375	-58.826691
6381.835938	-60.035423
6382.812500	-59.290173
6383.789062	-60.317848
6384.765625	-59.789173
6385.742188	-59.062702
6386.718750	-60.722668
6387.695312	-59.452057
6388.671875	-58.675491
6389.648438	-60.240253
6390.625000	-60.691578
6391.601562	-58.814426
6392.578125	-60.570030
6393.554688	-60.835094
6394.531250	-59.547356
6395.507812	-60.290421
6396.484375	-58.183315
6397.460938	-62.054737
6398.437500	-59.466938
6399.414062	-59.738434
6400.390625	-59.336201
6401.367188	-59.090240
6402.343750	-59.897007
6403.320312	-58.530121
6404.296875	-59.866425
6405.273438	-59.905090
6406.250000	-59.186264
6407.226562	-59.890709
6408.203125	-60.871429
6409.179688	-61.110886
6410.156250	-60.269176
6411.132812	-60.242123
6412.109375	-59.724686
6413.085938	-58.443100
6414.062500	-59.335751
6415.039062	-59.029156
6416.015625	-59.018116
6416.992188	-59.972397
6417.968750	-58.892704
6418.945312	-59.195457
6419.921875	-58.467182
6420.898438	-59.205368
6421.875000	-60.196392
6422.851562	-59.788342
6423.828125	-58.701900
6424.804688	-59.406013
6425.781250	-59.600628
6426.757812	-59.459026
6427.734375	-58.352222
6428.710938	-58.930408
6429.687500	-59.899658
6430.664062	-58.456303
6431.640625	-58.879387
6432.617188	-57.522366
6433.593750	-58.534340
6434.570312	-58.383102
6435.546875	-59.125202
6436.523438	-58.020668
6437.500000	-57.611927
6438.476562	-58.345646
6439.453125	-57.199722
6440.429688	-58.033329
6441.406250	-58.033932
6442.382812	-58.255047
6443.359375	-56.740326
6444.335938	-57.179455
6445.312500	-58.313030
6446.289062	-58.448227
6447.265625	-57.286686
6448.242188	-57.588165
6449.218750	-58.717609
6450.195312	-59.241325
6451.171875	-57.609695
6452.148438	-57.717514
6453.125000	-58.611015
6454.101562	-57.685257
6455.078125	-58.220806
6456.054688	-57.650867
6457.031250	-57.379871
6458.007812	-57.788937
6458.984375	-54.583599
6459.960938	-58.057034
6460.937500	-56.135769
6461.914062	-56.116089
6462.890625	-56.194881
6463.867188	-56.826557
6464.843750	-56.046108
6465.820312	-54.281269
6466.796875	-55.279285
6467.773438	-55.876900
6468.750000	-54.604599
6469.726562	-54.541775
6470.703125	-55.023739
6471.679688	-55.215366
6472.656250	-54.337257
6473.632812	-55.449013
6474.609375	-54.973686
6475.585938	-55.565735
6476.562500	-55.478500
6477.539062	-55.641716
6478.515625	-54.774136
6479.492188	-53.787556
6480.468750	-53.798153
6481.445312	-53.631832
6482.421875	-53.791630
6483.398438	-54.156376
6484.375000	-53.710018
6485.351562	-55.271713
6486.328125	-53.799911
6487.304688	-54.152035
6488.281250	-53.142971
6489.257812	-53.285892
6490.234375	-53.263474
6491.210938	-53.755432
6492.187500	-52.849163
6493.164062	-53.205750
6494.140625	-53.181526
6495.117188	-53.750576
6496.093750	-54.865349
6497.070312	-53.111160
6498.046875	-53.295849
6499.023438	-51.998955
6500.000000	-53.122925
6500.976562	-52.678993
6501.953125	-54.727371
6502.929688	-54.619358
6503.906250	-53.604351
6504.882812	-54.094131
6505.859375	-54.570339
6506.835938	-53.034103
6507.812500	-54.478790
6508.789062	-54.437199
6509.765625	-53.595844
6510.742188	-54.172886
6511.718750	-53.737682
6512.695312	-53.838554
6513.671875	-55.075706
6514.648438	-54.698868
6515.625000	-55.236137
6516.601562	-55.950912
6517.578125	-54.439789
6518.554688	-55.599751
6519.531250	-56.699780
6520.507812	-55.535652
6521.484375	-54.942440
6522.460938	-54.876740
6523.437500	-55.751846
6524.414062	-54.716270
6525.390625	-56.306511
6526.367188	-56.765987
6527.343750	-55.873859
6528.320312	-57.181473
6529.296875	-55.933456
6530.273438	-57.600868
6531.250000	-55.637676
6532.226562	-57.033569
6533.203125	-58.028297
6534.179688	-56.617870
6535.156250	-57.606445
6536.132812	-59.204796
6537.109375	-58.842670
6538.085938	-56.698376
6539.062500	-57.176842
6540.039062	-57.363937
6541.015625	-58.070869
6541.992188	-58.226334
6542.968750	-59.109871
6543.945312	-59.778938
6544.921875	-59.349537
6545.898438	-59.101219
6546.875000	-58.962341
6547.851562	-58.606495
6548.828125	-58.844341
6549.804688	-59.114555
6550.781250	-58.990822
6551.757812	-59.901161
6552.734375	-58.893238
6553.710938	-59.764580
6554.687500	-60.345943
6555.664062	-60.199394
6556.640625	-60.825581
6557.617188	-61.354824
6558.593750	-59.816181
6559.570312	-60.705963
6560.546875	-60.818653
6561.523438	-60.041138
6562.500000	-60.717209
6563.476562	-60.933590
6564.453125	-61.661423
6565.429688	-61.467503
6566.406250	-60.102882
6567.382812	-60.895546
6568.359375	-60.537148
6569.335938	-61.542213
6570.312500	-61.597832
6571.289062	-61.530323
6572.265625	-60.824261
6573.242188	-62.223259
6574.218750	-61.182861
6575.195312	-61.950089
6576.171875	-61.883556
6577.148438	-61.848286
6578.125000	-61.895241
6579.101562	-61.979301
6580.078125	-61.243198
6581.054688	-62.878464
6582.031250	-61.950184
6583.007812	-63.188000
6583.984375	-62.163151
6584.960938	-62.006664
6585.937500	-61.033154
6586.914062	-62.454353
6587.890625	-62.901142
6588.867188	-63.163616
6589.843750	-61.598846
6590.820312	-62.161034
6591.796875	-62.495399
6592.773438	-61.976299
6593.750000	-61.543327
6594.726562	-63.218277
6595.703125	-61.838318
6596.679688	-62.781097
6597.656250	-62.987968
6598.632812	-62.962585
6599.609375	-62.474770
6600.585938	-63.210503
6601.562500	-63.214668
6602.539062	-64.424446
6603.515625	-62.723541
6604.492188	-63.680344
6605.468750	-62.494099
6606.445312	-62.445107
6607.421875	-63.274921
6608.398438	-63.668274
6609.375000	-63.041641
6610.351562	-62.555401
6611.328125	-62.357918
6612.304688	-63.828896
6613.281250	-62.025211
6614.257812	-63.275188
6615.234375	-62.852760
6616.210938	-61.887527
6617.187500	-63.444447
6618.164062	-63.604042
6619.140625	-63.779163
6620.117188	-63.400375
6621.093750	-62.220642
6622.070312	-63.433315
6623.046875	-62.551937
6624.023438	-64.563652
6625.000000	-62.870796
6625.976562	-62.959724
6626.953125	-63.464630
6627.929688	-63.309772
6628.906250	-62.405678
6629.882812	-63.359074
6630.859375	-63.204838
6631.835938	-63.810570
6632.812500	-62.699696
6633.789062	-63.247711
6634.765625	-62.404926
6635.742188	-62.738747
6636.718750	-63.001289
6637.695312	-62.566677
6638.671875	-62.966122
6639.648438	-63.675621
6640.625000	-62.892578
6641.601562	-63.555382
6642.578125	-62.404987
6643.554688	-63.461929
6644.531250	-62.095898
6645.507812	-63.264755
6646.484375	-61.595917
6647.460938	-62.078350
6648.437500	-62.417610
6649.414062	-62.402683
6650.390625	-61.502209
6651.367188	-61.658142
6652.343750	-61.279434
6653.320312	-62.175167
6654.296875	-62.483318
6655.273438	-63.060532
6656.250000	-61.049660
6657.226562	-62.774029
6658.203125	-62.279556
6659.179688	-61.741459
6660.156250	-62.587841
6661.132812	-61.507030
6662.109375	-63.480453
6663.085938	-61.973457
6664.062500	-61.865986
6665.039062	-63.740986
6666.015625	-62.782726
6666.992188	-62.218452
6667.968750	-62.213577
6668.945312	-61.999828
6669.921875	-61.601395
6670.898438	-61.756142
6671.875000	-62.043777
6672.851562	-62.866543
6673.828125	-61.935150
6674.804688	-62.499428
6675.781250	-61.269245
6676.757812	-60.460854
6677.734375	-61.182060
6678.710938	-59.928596
6679.687500	-60.676285
6680.664062	-60.118732
6681.640625	-61.156292
6682.617188	-59.744183
6683.593750	-60.482479
6684.570312	-61.296436
6685.546875	-60.849598
6686.523438	-59.967529
6687.500000	-59.535320
6688.476562	-58.772972
6689.453125	-58.530640
6690.429688	-60.366505
6691.406250	-61.656792
6692.382812	-59.625977
6693.359375	-58.720707
6694.335938	-59.966778
6695.312500	-60.221222
6696.289062	-58.489677
6697.265625	-58.583046
6698.242188	-59.859886
6699.218750	-58.479782
6700.195312	-58.767246
6701.171875	-59.109127
6702.148438	-58.607533
6703.125000	-59.301331
6704.101562	-58.312637
6705.078125	-57.228310
6706.054688	-58.072693
6707.031250	-58.219826
6708.007812	-57.467896
6708.984375	-58.163780
6709.960938	-57.341591
6710.937500	-58.979858
6711.914062	-57.746803
6712.890625	-57.752312
6713.867188	-58.778206
6714.843750	-57.360546
6715.820312	-58.383606
6716.796875	-58.438507
6717.773438	-57.337730
6718.750000	-58.097450
6719.726562	-59.286388
6720.703125	-57.956924
6721.679688	-57.716396
6722.656250	-58.937222
6723.632812	-58.064896
6724.609375	-57.693230
6725.585938	-58.075878
6726.562500	-59.203281
6727.539062	-56.664280
6728.515625	-58.792191
6729.492188	-58.531448
6730.468750	-58.643585
6731.445312	-59.172951
6732.421875	-57.685883
6733.398438	-58.771164
6734.375000	-59.771370
6735.351562	-58.859005
6736.328125	-58.459133
6737.304688	-58.334290
6738.281250	-60.040062
6739.257812	-58.963371
6740.234375	-60.222824
6741.210938	-60.040516
6742.187500	-59.743443
6743.164062	-59.016258
6744.140625	-59.296440
6745.117188	-60.160042
6746.093750	-59.556953
6747.070312	-59.926491
6748.046875	-62.103886
6749.023438	-60.475262
6750.000000	-60.307716
6750.976562	-60.753384
6751.953125	-61.792778
6752.929688	-60.810696
6753.906250	-62.078304
6754.882812	-61.162495
6755.859375	-61.263691
6756.835938	-61.313160
6757.812500	-62.702869
6758.789062	-62.867001
6759.765625	-62.065468
6760.742188	-62.654831
6761.718750	-62.265972
6762.695312	-62.519951
6763.671875	-63.512539
6764.648438	-62.749435
6765.625000	-61.660225
6766.601562	-62.547565
6767.578125	-62.630642
6768.554688	-62.822788
6769.531250	-63.733608
6770.507812	-63.735718
6771.484375	-63.109123
6772.460938	-63.949867
6773.437500	-63.708923
6774.414062	-64.803688
6775.390625	-64.102829
6776.367188	-64.388992
6777.343750	-63.314350
6778.320312	-64.257965
6779.296875	-63.883236
6780.273438	-65.837814
6781.250000	-66.307793
6782.226562	-65.479881
6783.203125	-64.740654
6784.179688	-65.020523
6785.156250	-64.994125
6786.132812	-65.176170
6787.109375	-66.032501
6788.085938	-64.805962
6789.062500	-65.424355
6790.039062	-65.166824
6791.015625	-65.428986
6791.992188	-65.221939
6792.968750	-66.588425
6793.945312	-66.075974
6794.921875	-66.005608
6795.898438	-64.757248
6796.875000	-65.128517
6797.851562	-65.655975
6798.828125	-65.740753
6799.804688	-66.282501
6800.781250	-66.045593
6801.757812	-67.069519
6802.734375	-65.859001
6803.710938	-64.773323
6804.687500	-66.957497
6805.664062	-67.286308
6806.640625	-65.498985
6807.617188	-67.508041
6808.593750	-67.639923
6809.570312	-66.011169
6810.546875	-65.652634
6811.523438	-67.758530
6812.500000	-66.711372
6813.476562	-67.040108
6814.453125	-67.362930
6815.429688	-67.652779
6816.406250	-67.148293
6817.382812	-66.312981
6818.359375	-66.781975
6819.335938	-66.872986
6820.312500	-66.849907
6821.289062	-67.451462
6822.265625	-66.902687
6823.242188	-67.602219
6824.218750	-67.616409
6825.195312	-66.988945
6826.171875	-67.389366
6827.148438	-67.043030
6828.125000	-68.697975
6829.101562	-67.473579
6830.078125	-68.085327
6831.054688	-67.475243
6832.031250	-67.251488
6833.007812	-67.764114
6833.984375	-67.078850
6834.960938	-68.889694
6835.937500	-66.621277
6836.914062	-67.440056
6837.890625	-69.056656
6838.867188	-68.633011
6839.843750	-67.685837
6840.820312	-68.341492
6841.796875	-67.068878
6842.773438	-68.137138
6843.750000	-68.348389
6844.726562	-68.974358
6845.703125	-69.531700
6846.679688	-68.461136
6847.656250	-67.644730
6848.632812	-67.375374
6849.609375	-68.368645
6850.585938	-67.619972
6851.562500	-67.070732
6852.539062	-68.468788
6853.515625	-67.875305
6854.492188	-68.494972
6855.468750	-68.167183
6856.445312	-68.419930
6857.421875	-67.348740
6858.398438	-67.624199
6859.375000	-67.191910
6860.351562	-67.431320
6861.328125	-66.551552
6862.304688	-68.630066
6863.281250	-67.680748
6864.257812	-67.497887
6865.234375	-68.206245
6866.210938	-67.447815
6867.187500	-67.706909
6868.164062	-68.634972
6869.140625	-67.228912
6870.117188	-68.242058
6871.093750	-68.534431
6872.070312	-67.443199
6873.046875	-68.636314
6874.023438	-66.991936
6875.000000	-67.914787
6875.976562	-68.319275
6876.953125	-68.595238
6877.929688	-66.998917
6878.906250	-66.287056
6879.882812	-67.624199
6880.859375	-67.353172
6881.835938	-65.101944
6882.812500	-66.559052
6883.789062	-66.917931
6884.765625	-66.670044
6885.742188	-66.473595
6886.718750	-68.115410
6887.695312	-66.902252
6888.671875	-66.772942
6889.648438	-66.074677
6890.625000	-66.572075
6891.601562	-66.935173
6892.578125	-67.229004
6893.554688	-66.932709
6894.531250	-66.143234
6895.507812	-67.021568
6896.484375	-67.612495
6897.460938	-66.565552
6898.437500	-66.131630
6899.414062	-65.889359
6900.390625	-66.055588
6901.367188	-64.492882
6902.343750	-65.451347
6903.320312	-65.895271
6904.296875	-64.714096
6905.273438	-65.015717
6906.250000	-65.733894
6907.226562	-66.087296
6908.203125	-64.300926
6909.179688	-64.929352
6910.156250	-65.190361
6911.132812	-65.068008
6912.109375	-65.101501
6913.085938	-64.662933
6914.062500	-65.173042
6915.039062	-64.572746
6916.015625	-64.396225
6916.992188	-63.834126
6917.968750	-65.065201
6918.945312	-64.301270
6919.921875	-64.418121
6920.898438	-64.514977
6921.875000	-63.581898
6922.851562	-63.268383
6923.828125	-65.286545
6924.804688	-64.185623
6925.781250	-63.054554
6926.757812	-64.105637
6927.734375	-62.787270
6928.710938	-63.192730
6929.687500	-64.547569
6930.664062	-63.856991
6931.640625	-63.398975
6932.617188	-62.854500
6933.593750	-63.663162
6934.570312	-63.933681
6935.546875	-63.907730
6936.523438	-64.691353
6937.500000	-63.159660
6938.476562	-62.439007
6939.453125	-63.478405
6940.429688	-62.879192
6941.406250	-63.452782
6942.382812	-64.543633
6943.359375	-61.958668
6944.335938	-63.133419
6945.312500	-64.659637
6946.289062	-64.354607
6947.265625	-64.972672
6948.242188	-63.361866
6949.218750	-64.280975
6950.195312	-64.230515
6951.171875	-63.620796
6952.148438	-64.507767
6953.125000	-64.423225
6954.101562	-64.319038
6955.078125	-63.929485
6956.054688	-64.103127
6957.031250	-64.038765
6958.007812	-64.315041
6958.984375	-64.706871
6959.960938	-65.696564
6960.937500	-64.820419
6961.914062	-65.710510
6962.890625	-65.568977
6963.867188	-65.870071
6964.843750	-66.237785
6965.820312	-66.442276
6966.796875	-65.457932
6967.773438	-65.316307
6968.750000	-65.624947
6969.726562	-66.268517
6970.703125	-66.694481
6971.679688	-66.704506
6972.656250	-66.278992
6973.632812	-67.025986
6974.609375	-66.740456
6975.585938	-67.431419
6976.562500	-67.119476
6977.539062	-67.629913
6978.515625	-68.283836
6979.492188	-67.503975
6980.468750	-67.071365
6981.445312	-68.065834
6982.421875	-67.832901
6983.398438	-68.272720
6984.375000	-68.320358
6985.351562	-69.643867
6986.328125	-69.026970
6987.304688	-68.675491
6988.281250	-68.468941
6989.257812	-69.239288
6990.234375	-68.779327
6991.210938	-68.240311
6992.187500	-69.310722
6993.164062	-70.262444
6994.140625	-69.643951
6995.117188	-68.801903
6996.093750	-70.370430
6997.070312	-69.426506
6998.046875	-70.331642
6999.023438	-69.669044
7000.000000	-70.221825
7000.976562	-70.328369
7001.953125	-70.770767
7002.929688	-70.138130
7003.906250	-70.025780
7004.882812	-70.113426
7005.859375	-70.980270
7006.835938	-71.136139
7007.812500	-70.888016
7008.789062	-72.403038
7009.765625	-72.078728
7010.742188	-70.938232
7011.718750	-71.606316
7012.695312	-71.723106
7013.671875	-71.559662
7014.648438	-70.388611
7015.625000	-71.516724
7016.601562	-72.777473
7017.578125	-72.274620
7018.554688	-72.155090
7019.531250	-71.438484
7020.507812	-72.461449
7021.484375	-73.478668
7022.460938	-72.637909
7023.437500	-71.908737
7024.414062	-71.576370
7025.390625	-73.643814
7026.367188	-72.631447
7027.343750	-72.817192
7028.320312	-71.954430
7029.296875	-73.262817
7030.273438	-73.694695
7031.250000	-72.670784
7032.226562	-72.167900
7033.203125	-73.710014
7034.179688	-73.467255
7035.156250	-72.860291
7036.132812	-74.399750
7037.109375	-73.871468
7038.085938	-72.889503
7039.062500	-73.185417
7040.039062	-74.221375
7041.015625	-74.110672
7041.992188	-73.762077
7042.968750	-73.475487
7043.945312	-73.434135
7044.921875	-75.157234
7045.898438	-72.811966
7046.875000	-73.397934
7047.851562	-74.734146
7048.828125	-73.683083
7049.804688	-73.527405
7050.781250	-74.083519
7051.757812	-74.736572
7052.734375	-74.073166
7053.710938	-73.860306
7054.687500	-74.179237
7055.664062	-73.520912
7056.640625	-73.736618
7057.617188	-73.930328
7058.593750	-74.556580
7059.570312	-74.829903
7060.546875	-73.922539
7061.523438	-74.059219
7062.500000	-74.373779
7063.476562	-74.082077
7064.453125	-75.188911
7065.429688	-75.195747
7066.406250	-73.911354
7067.382812	-75.437950
7068.359375	-74.476982
7069.335938	-74.622978
7070.312500	-73.489227
7071.289062	-74.829277
7072.265625	-74.242043
7073.242188	-74.516891
7074.218750	-74.143448
7075.195312	-75.339401
7076.171875	-74.401321
7077.148438	-75.020042
7078.125000	-75.033272
7079.101562	-75.534943
7080.078125	-74.780258
7081.054688	-75.485817
7082.031250	-76.060768
7083.007812	-74.736298
7083.984375	-74.731964
7084.960938	-74.353989
7085.937500	-74.802284
7086.914062	-74.858269
7087.890625	-75.204269
7088.867188	-74.121735
7089.843750	-74.618866
7090.820312	-74.860611
7091.796875	-73.570587
7092.773438	-73.615738
7093.750000	-74.654243
7094.726562	-74.399590
7095.703125	-73.577934
7096.679688	-74.702209
7097.656250	-73.588295
7098.632812	-74.240173
7099.609375	-73.476334
7100.585938	-73.999962
7101.562500	-73.469902
7102.539062	-73.883804
7103.515625	-74.291740
7104.492188	-74.882004
7105.468750	-74.489220
7106.445312	-74.647240
7107.421875	-74.345947
7108.398438	-74.154442
7109.375000	-74.365273
7110.351562	-74.338097
7111.328125	-74.697243
7112.304688	-74.108505
7113.281250	-74.615578
7114.257812	-73.402740
7115.234375	-74.202812
7116.210938	-74.085899
7117.187500	-74.677269
7118.164062	-71.944145
7119.140625	-72.940277
7120.117188	-75.033051
7121.093750	-73.424286
7122.070312	-73.794121
7123.046875	-73.703453
7124.023438	-74.114273
7125.000000	-72.767921
7125.976562	-73.208092
7126.953125	-72.574677
7127.929688	-72.728638
7128.906250	-72.701073
7129.882812	-73.160065
7130.859375	-71.990677
7131.835938	-72.862053
7132.812500	-72.328598
7133.789062	-73.557541
7134.765625	-72.291931
7135.742188	-72.451736
7136.718750	-71.871796
7137.695312	-72.378723
7138.671875	-72.475868
7139.648438	-72.742874
7140.625000	-72.507744
7141.601562	-72.583794
7142.578125	-73.010620
7143.554688	-71.632378
7144.531250	-70.518837
7145.507812	-71.206444
7146.484375	-71.957626
7147.460938	-70.208458
7148.437500	-70.746101
7149.414062	-72.246056
7150.390625	-70.917175
7151.367188	-71.338882
7152.343750	-70.272461
7153.320312	-71.501617
7154.296875	-71.129654
7155.273438	-70.876953
7156.250000	-72.085480
7157.226562	-71.744720
7158.203125	-70.721954
7159.179688	-70.627083
7160.156250	-70.660179
7161.132812	-71.486290
7162.109375	-72.111526
7163.085938	-70.646324
7164.062500	-70.656128
7165.039062	-71.076332
7166.015625	-69.829132
7166.992188	-71.209755
7167.968750	-71.388718
7168.945312	-70.947556
7169.921875	-72.554787
7170.898438	-71.632370
7171.875000	-72.458855
7172.851562	-72.409805
7173.828125	-71.422127
7174.804688	-72.364426
7175.781250	-71.710114
7176.757812	-71.667007
7177.734375	-72.300262
7178.710938	-72.293083
7179.687500	-72.047012
7180.664062	-73.137466
7181.640625	-72.358604
7182.617188	-72.931664
7183.593750	-72.727936
7184.570312	-73.245743
7185.546875	-72.756844
7186.523438	-73.588928
7187.500000	-72.697380
7188.476562	-72.782249
7189.453125	-73.998970
7190.429688	-73.138008
7191.406250	-74.041397
7192.382812	-74.753677
7193.359375	-72.579025
7194.335938	-74.167679
7195.312500	-73.826447
7196.289062	-73.906677
7197.265625	-74.951134
7198.242188	-75.144180
7199.218750	-75.696152
7200.195312	-75.497948
7201.171875	-74.562943
7202.148438	-75.463722
7203.125000	-75.678261
7204.101562	-76.449303
7205.078125	-75.254402
7206.054688	-76.539215
7207.031250	-76.934723
7208.007812	-75.948044
7208.984375	-77.654411
7209.960938	-77.099045
7210.937500	-77.580902
7211.914062	-77.464890
7212.890625	-76.607887
7213.867188	-77.699020
7214.843750	-77.018356
7215.820312	-77.852264
7216.796875	-77.376289
7217.773438	-78.324448
7218.750000	-76.709595
7219.726562	-78.226532
7220.703125	-78.438690
7221.679688	-77.778847
7222.656250	-78.445328
7223.632812	-78.937592
7224.609375	-78.128342
7225.585938	-78.743484
7226.562500	-80.722847
7227.539062	-78.797676
7228.515625	-79.848396
7229.492188	-78.614021
7230.468750	-79.552505
7231.445312	-80.658730
7232.421875	-79.693001
7233.398438	-79.192169
7234.375000	-79.416214
7235.351562	-79.711578
7236.328125	-79.006950
7237.304688	-79.127167
7238.281250	-78.840950
7239.257812	-79.831367
7240.234375	-80.154419
7241.210938	-80.471794
7242.187500	-80.942329
7243.164062	-80.563828
7244.140625	-80.323105
7245.117188	-81.200752
7246.093750	-80.196037
7247.070312	-79.709595
7248.046875	-80.297859
7249.023438	-81.317947
7250.000000	-80.861206
7250.976562	-80.862846
7251.953125	-80.466881
7252.929688	-80.370560
7253.906250	-80.140411
7254.882812	-81.142731
7255.859375	-82.948685
7256.835938	-82.115082
7257.812500	-80.308014
7258.789062	-80.382233
7259.765625	-81.357780
7260.742188	-82.100464
7261.718750	-81.119514
7262.695312	-81.312202
7263.671875	-81.238159
7264.648438	-81.287918
7265.625000	-81.540276
7266.601562	-81.454521
7267.578125	-81.831902
7268.554688	-81.545311
7269.531250	-82.681343
7270.507812	-83.408928
7271.484375	-81.668236
7272.460938	-81.852989
7273.437500	-82.095924
7274.414062	-83.501579
7275.390625	-82.457314
7276.367188	-81.879364
7277.343750	-82.537712
7278.320312	-83.143616
7279.296875	-82.746895
7280.273438	-82.113937
7281.250000	-81.369286
7282.226562	-82.577347
7283.203125	-82.891914
7284.179688	-83.841255
7285.156250	-82.729408
7286.132812	-82.732635
7287.109375	-83.174408
7288.085938	-82.875832
7289.062500	-83.282707
7290.039062	-83.342316
7291.015625	-84.540359
7291.992188	-83.420715
7292.968750	-83.416824
7293.945312	-84.266914
7294.921875	-84.374382
7295.898438	-83.950455
7296.875000	-83.439659
7297.851562	-82.774483
7298.828125	-83.522514
7299.804688	-82.918114
7300.781250	-82.216759
7301.757812	-82.516068
7302.734375	-82.083252
7303.710938	-82.375183
7304.687500	-82.496178
7305.664062	-84.366920
7306.640625	-84.454346
7307.617188	-81.910194
7308.593750	-83.474663
7309.570312	-83.552246
7310.546875	-82.635994
7311.523438	-82.922256
7312.500000	-82.631317
7313.476562	-82.104477
7314.453125	-83.120377
7315.429688	-83.244072
7316.406250	-82.225876
7317.382812	-83.983795
7318.359375	-82.673843
7319.335938	-83.230896
7320.312500	-83.749069
7321.289062	-82.811920
7322.265625	-81.775452
7323.242188	-83.603035
7324.218750	-83.158653
7325.195312	-83.751892
7326.171875	-82.125725
7327.148438	-81.889473
7328.125000	-83.028664
7329.101562	-84.133545
7330.078125	-83.042320
7331.054688	-82.911964
7332.031250	-82.814545
7333.007812	-83.217415
7333.984375	-83.242142
7334.960938	-81.465851
7335.937500	-83.075661
7336.914062	-81.553986
7337.890625	-80.720177
7338.867188	-80.623550
7339.843750	-80.961235
7340.820312	-83.248787
7341.796875	-82.487343
7342.773438	-82.177696
7343.750000	-83.313408
7344.726562	-82.359375
7345.703125	-82.552849
7346.679688	-81.860641
7347.656250	-82.322464
7348.632812	-81.609741
7349.609375	-82.055473
7350.585938	-82.761093
7351.562500	-82.203323
7352.539062	-81.973633
7353.515625	-81.002327
7354.492188	-82.995781
7355.468750	-80.463593
7356.445312	-82.690437
7357.421875	-81.103470
7358.398438	-80.473518
7359.375000	-82.015472
7360.351562	-81.317497
7361.328125	-82.586494
7362.304688	-81.393341
7363.281250	-81.143188
7364.257812	-81.626015
7365.234375	-82.046967
7366.210938	-80.838203
7367.187500	-80.217773
7368.164062	-81.646286
7369.140625	-81.428619
7370.117188	-80.204498
7371.093750	-80.863167
7372.070312	-80.419594
7373.046875	-80.000259
7374.023438	-80.508080
7375.000000	-80.765800
7375.976562	-80.035088
7376.953125	-80.592491
7377.929688	-79.805603
7378.906250	-81.424652
7379.882812	-80.920135
7380.859375	-80.065430
7381.835938	-80.296776
7382.812500	-81.610130
7383.789062	-81.470917
7384.765625	-81.043777
7385.742188	-80.716927
7386.718750	-82.307739
7387.695312	-82.450882
7388.671875	-81.427147
7389.648438	-80.820488
7390.625000	-81.965256
7391.601562	-82.321999
7392.578125	-81.312271
7393.554688	-81.950020
7394.531250	-81.738144
7395.507812	-81.473732
7396.484375	-83.058640
7397.460938	-81.735512
7398.437500	-81.697327
7399.414062	-82.283745
7400.390625	-81.967705
7401.367188	-81.595985
7402.343750	-82.857445
7403.320312	-82.647308
7404.296875	-82.481865
7405.273438	-82.792542
7406.250000	-82.757607
7407.226562	-82.472458
7408.203125	-82.383789
7409.179688	-85.005684
7410.156250	-84.508949
7411.132812	-83.939766
7412.109375	-83.893173
7413.085938	-84.490028
7414.062500	-84.049477
7415.039062	-84.572144
7416.015625	-84.966324
7416.992188	-84.695847
7417.968750	-83.689835
7418.945312	-85.469635
7419.921875	-84.603394
7420.898438	-85.620819
7421.875000	-84.670631
7422.851562	-84.221306
7423.828125	-85.550308
7424.804688	-85.720375
7425.781250	-86.016281
7426.757812	-85.536591
7427.734375	-86.459641
7428.710938	-86.542595
7429.687500	-86.942261
7430.664062	-86.111969
7431.640625	-86.665306
7432.617188	-85.818359
7433.593750	-86.181351
7434.570312	-86.346237
7435.546875	-86.259010
7436.523438	-86.769989
7437.500000	-87.101044
7438.476562	-87.038757
7439.453125	-86.390099
7440.429688	-86.853157
7441.406250	-88.037804
7442.382812	-86.683098
7443.359375	-87.831673
7444.335938	-88.027733
7445.312500	-86.922920
7446.289062	-87.526802
7447.265625	-86.962723
7448.242188	-89.275002
7449.218750	-87.817497
7450.195312	-88.098610
7451.171875	-88.540123
7452.148438	-88.746315
7453.125000	-89.796204
7454.101562	-88.251015
7455.078125	-89.489426
7456.054688	-87.908775
7457.031250	-88.830910
7458.007812	-89.004860
7458.984375	-88.157127
7459.960938	-87.970787
7460.937500	-89.249146
7461.914062	-89.054306
7462.890625	-88.394615
7463.867188	-89.060577
7464.843750	-89.083794
7465.820312	-88.795670
7466.796875	-89.202301
7467.773438	-88.768288
7468.750000	-89.057289
7469.726562	-89.133209
7470.703125	-89.525230
7471.679688	-90.250511
7472.656250	-89.689003
7473.632812	-88.408371
7474.609375	-88.917953
7475.585938	-89.650246
7476.562500	-89.978119
7477.539062	-90.461098
7478.515625	-90.045998
7479.492188	-89.170631
7480.468750	-89.312241
7481.445312	-89.383713
7482.421875	-89.200691
7483.398438	-89.949944
7484.375000	-90.188080
7485.351562	-89.750496
7486.328125	-89.583908
7487.304688	-88.592926
7488.281250	-90.071320
7489.257812	-89.099052
7490.234375	-89.609123
7491.210938	-90.347824
7492.187500	-90.251839
7493.164062	-89.998795
7494.140625	-89.742004
7495.117188	-89.822624
7496.093750	-90.162941
7497.070312	-90.716705
7498.046875	-90.836433
7499.023438	-90.338211
7500.000000	-90.357056
7500.976562	-90.535187
7501.953125	-89.930267
7502.929688	-90.416161
7503.906250	-90.053497
7504.882812	-89.783188
7505.859375	-90.702522
7506.835938	-91.274841
7507.812500	-90.978958
7508.789062	-90.677834
7509.765625	-90.081558
7510.742188	-90.294998
7511.718750	-90.969894
7512.695312	-90.649124
7513.671875	-90.387062
7514.648438	-90.846901
7515.625000	-90.068192
7516.601562	-90.033875
7517.578125	-90.383263
7518.554688	-91.225212
7519.531250	-90.782028
7520.507812	-91.310249
7521.484375	-90.735710
7522.460938	-90.523727
7523.437500	-90.457199
7524.414062	-91.075798
7525.390625	-90.414375
7526.367188	-90.965988
7527.343750	-89.800629
7528.320312	-91.032837
7529.296875	-90.474739
7530.273438	-90.447739
7531.250000	-91.137932
7532.226562	-90.179924
7533.203125	-90.343819
7534.179688	-91.328613
7535.156250	-90.589188
7536.132812	-91.022247
7537.109375	-90.397591
7538.085938	-90.769691
7539.062500	-90.948677
7540.039062	-91.269386
7541.015625	-90.661507
7541.992188	-90.074455
7542.968750	-90.891739
7543.945312	-90.713791
7544.921875	-91.092094
7545.898438	-91.080544
7546.875000	-89.965675
7547.851562	-90.811615
7548.828125	-90.649529
7549.804688	-91.355072
7550.781250	-90.460335
7551.757812	-90.362732
7552.734375	-90.259079
7553.710938	-90.688034
7554.687500	-91.453880
7555.664062	-91.500107
7556.640625	-90.879349
7557.617188	-91.535187
7558.593750	-91.353851
7559.570312	-91.432770
7560.546875	-90.227112
7561.523438	-90.836594
7562.500000	-91.321327
7563.476562	-90.716331
7564.453125	-91.351410
7565.429688	-90.274910
7566.406250	-91.009972
7567.382812	-91.092850
7568.359375	-90.722160
7569.335938	-91.304657
7570.312500	-91.249977
7571.289062	-90.773041
7572.265625	-90.462540
7573.242188	-90.239616
7574.218750	-91.047791
7575.195312	-90.786850
7576.171875	-91.243881
7577.148438	-89.851936
7578.125000	-90.299850
7579.101562	-90.562401
7580.078125	-90.548019
7581.054688	-90.888557
7582.031250	-90.944122
7583.007812	-91.085815
7583.984375	-90.890427
7584.960938	-90.752312
7585.937500	-91.494698
7586.914062	-91.305618
7587.890625	-90.372932
7588.867188	-91.139549
7589.843750	-90.671234
7590.820312	-90.383560
7591.796875	-91.389938
7592.773438	-90.434242
7593.750000	-90.989998
7594.726562	-90.989464
7595.703125	-91.302177
7596.679688	-91.168953
7597.656250	-91.194336
7598.632812	-90.676689
7599.609375	-91.281822
7600.585938	-91.160614
7601.562500	-91.225349
7602.539062	-91.859108
7603.515625	-91.639725
7604.492188	-90.888680
7605.468750	-91.139221
7606.445312	-91.237961
7607.421875	-91.187019
7608.398438	-90.834137
7609.375000	-91.201538
7610.351562	-90.815742
7611.328125	-91.930893
7612.304688	-91.451653
7613.281250	-91.436142
7614.257812	-92.171249
7615.234375	-91.352684
7616.210938	-91.526443
7617.187500	-91.426407
7618.164062	-91.428543
7619.140625	-91.788139
7620.117188	-91.591805
7621.093750	-91.380852
7622.070312	-91.498947
7623.046875	-91.645020
7624.023438	-91.186554
7625.000000	-91.549835
7625.976562	-92.167267
7626.953125	-92.035271
7627.929688	-91.765343
7628.906250	-91.854912
7629.882812	-91.675034
7630.859375	-91.488983
7631.835938	-91.727760
7632.812500	-91.843063
7633.789062	-91.673111
7634.765625	-92.366524
7635.742188	-91.629852
7636.718750	-91.926857
7637.695312	-92.260071
7638.671875	-92.005051
7639.648438	-92.143967
7640.625000	-91.787651
7641.601562	-91.864273
7642.578125	-92.057816
7643.554688	-92.332321
7644.531250	-91.972076
7645.507812	-91.809135
7646.484375	-91.997353
7647.460938	-91.896973
7648.437500	-91.976425
7649.414062	-92.362274
7650.390625	-92.217430
7651.367188	-92.299950
7652.343750	-92.090149
7653.320312	-92.566467
7654.296875	-92.282249
7655.273438	-91.822388
7656.250000	-92.099747
7657.226562	-92.161919
7658.203125	-92.251030
7659.179688	-92.148430
7660.156250	-92.169579
7661.132812	-92.313484
7662.109375	-92.102356
7663.085938	-92.305840
7664.062500	-92.427322
7665.039062	-92.550583
7666.015625	-92.414268
7666.992188	-92.242325
7667.968750	-92.412346
7668.945312	-92.282104
7669.921875	-92.272423
7670.898438	-92.231926
7671.875000	-92.320831
7672.851562	-92.522530
7673.828125	-92.214615
7674.804688	-92.212097
7675.781250	-92.247017
7676.757812	-92.443253
7677.734375	-92.454422
7678.710938	-92.353195
7679.687500	-92.158203
7680.664062	-92.245575
7681.640625	-92.340645
7682.617188	-92.410072
7683.593750	-92.323456
7684.570312	-92.335022
7685.546875	-92.372192
7686.523438	-92.283737
7687.500000	-92.296631
7688.476562	-92.384659
7689.453125	-92.366547
7690.429688	-92.133858
7691.406250	-92.389709
7692.382812	-92.388588
7693.359375	-92.293182
7694.335938	-92.284698
7695.312500	-92.280472
7696.289062	-92.419220
7697.265625	-92.365898
7698.242188	-92.381287
7699.218750	-92.452667
7700.195312	-92.364029
7701.171875	-92.319504
7702.148438	-92.395119
7703.125000	-92.283836
7704.101562	-92.489120
7705.078125	-92.426056
7706.054688	-92.422661
7707.031250	-92.383148
7708.007812	-92.380592
7708.984375	-92.418716
7709.960938	-92.311974
7710.937500	-92.322464
7711.914062	-92.419617
7712.890625	-92.357452
7713.867188	-92.380135
7714.843750	-92.412498
7715.820312	-92.413605
7716.796875	-92.410431
7717.773438	-92.484077
7718.750000	-92.447533
7719.726562	-92.401611
7720.703125	-92.450325
7721.679688	-92.420143
7722.656250	-92.388977
7723.632812	-92.412766
7724.609375	-92.415169
7725.585938	-92.385551
7726.562500	-92.449387
7727.539062	-92.463020
7728.515625	-92.456795
7729.492188	-92.406044
7730.468750	-92.470230
7731.445312	-92.408737
7732.421875	-92.448311
7733.398438	-92.441170
7734.375000	-92.473618
7735.351562	-92.416573
7736.328125	-92.419342
7737.304688	-92.464165
7738.281250	-92.436745
7739.257812	-92.474854
7740.234375	-92.466309
7741.210938	-92.405167
7742.187500	-92.442749
7743.164062	-92.418434
7744.140625	-92.427292
7745.117188	-92.446526
7746.093750	-92.457649
7747.070312	-92.472900
7748.046875	-92.433258
7749.023438	-92.484535
7750.000000	-92.455032
7750.976562	-92.464455
7751.953125	-92.477280
7752.929688	-92.469124
7753.906250	-92.491173
7754.882812	-92.447472
7755.859375	-92.459480
7756.835938	-92.445023
7757.812500	-92.452003
7758.789062	-92.479721
7759.765625	-92.490173
7760.742188	-92.506935
7761.718750	-92.456863
7762.695312	-92.471031
7763.671875	-92.491425
7764.648438	-92.488029
7765.625000	-92.485603
7766.601562	-92.508377
7767.578125	-92.490479
7768.554688	-92.510628
7769.531250	-92.494614
7770.507812	-92.454308
7771.484375	-92.481987
7772.460938	-92.506691
7773.437500	-92.500160
7774.414062	-92.469643
7775.390625	-92.475296
7776.367188	-92.520187
7777.343750	-92.474365
7778.320312	-92.511536
7779.296875	-92.512611
7780.273438	-92.466476
7781.250000	-92.496193
7782.226562	-92.504745
7783.203125	-92.511314
7784.179688	-92.508438
7785.156250	-92.509148
7786.132812	-92.507072
7787.109375	-92.509949
7788.085938	-92.513016
7789.062500	-92.533012
7790.039062	-92.524811
7791.015625	-92.538376
7791.992188	-92.533943
7792.968750	-92.501373
7793.945312	-92.512268
7794.921875	-92.534134
7795.898438	-92.547150
7796.875000	-92.547729
7797.851562	-92.522026
7798.828125	-92.523270
7799.804688	-92.534904
7800.781250	-92.526024
7801.757812	-92.526016
7802.734375	-92.525406
7803.710938	-92.536606
7804.687500	-92.532379
7805.664062	-92.535950
7806.640625	-92.531761
7807.617188	-92.523911
7808.593750	-92.534706
7809.570312	-92.548409
7810.546875	-92.535385
7811.523438	-92.527504
7812.500000	-92.534447
7813.476562	-92.542465
7814.453125	-92.545921
7815.429688	-92.550064
7816.406250	-92.535355
7817.382812	-92.538918
7818.359375	-92.544716
7819.335938	-92.544975
7820.312500	-92.543236
7821.289062	-92.550339
7822.265625	-92.548050
7823.242188	-92.550423
7824.218750	-92.547394
7825.195312	-92.541214
7826.171875	-92.548203
7827.148438	-92.551346
7828.125000	-92.545776
7829.101562	-92.556183
7830.078125	-92.553566
7831.054688	-92.557709
7832.031250	-92.559738
7833.007812	-92.557320
7833.984375	-92.555916
7834.960938	-92.555977
7835.937500	-92.561104
7836.914062	-92.557098
7837.890625	-92.560921
7838.867188	-92.560493
7839.843750	-92.566650
7840.820312	-92.567421
7841.796875	-92.564606
7842.773438	-92.563370
7843.750000	-92.566406
7844.726562	-92.567513
7845.703125	-92.563141
7846.679688	-92.567444
7847.656250	-92.567879
7848.632812	-92.571732
7849.609375	-92.570923
7850.585938	-92.569420
7851.562500	-92.568779
7852.539062	-92.570419
7853.515625	-92.572670
7854.492188	-92.571877
7855.468750	-92.574318
7856.445312	-92.573936
7857.421875	-92.574654
7858.398438	-92.576591
7859.375000	-92.575829
7860.351562	-92.576073
7861.328125	-92.577385
7862.304688	-92.577660
7863.281250	-92.578575
7864.257812	-92.577339
7865.234375	-92.579590
7866.210938	-92.581009
7867.187500	-92.581825
7868.164062	-92.582085
7869.140625	-92.582222
7870.117188	-92.582619
7871.093750	-92.584000
7872.070312	-92.584709
7873.046875	-92.584709
7874.023438	-92.585892
7875.000000	-92.586121
7875.976562	-92.586403
7876.953125	-92.586540
7877.929688	-92.587769
7878.906250	-92.588676
7879.882812	-92.589142
7880.859375	-92.589432
7881.835938	-92.589882
7882.812500	-92.590614
7883.789062	-92.591003
7884.765625	-92.591476
7885.742188	-92.592239
7886.718750	-92.592613
7887.695312	-92.593010
7888.671875	-92.593887
7889.648438	-92.594276
7890.625000	-92.594322
7891.601562	-92.595146
7892.578125	-92.595665
7893.554688	-92.596184
7894.531250	-92.596588
7895.507812	-92.597229
7896.484375	-92.597740
7897.460938	-92.598404
7898.437500	-92.598557
7899.414062	-92.599167
7900.390625	-92.599403
7901.367188	-92.600006
7902.343750	-92.600449
7903.320312	-92.600761
7904.296875	-92.601463
7905.273438	-92.601685
7906.250000	-92.602188
7907.226562	-92.602615
7908.203125	-92.603096
7909.179688	-92.603607
7910.156250	-92.603973
7911.132812	-92.604378
7912.109375	-92.604820
7913.085938	-92.605225
7914.062500	-92.605545
7915.039062	-92.605995
7916.015625	-92.606346
7916.992188	-92.606743
7917.968750	-92.607162
7918.945312	-92.607452
7919.921875	-92.607857
7920.898438	-92.608246
7921.875000	-92.608604
7922.851562	-92.608978
7923.828125	-92.609314
7924.804688	-92.609642
7925.781250	-92.610016
7926.757812	-92.610359
7927.734375	-92.610641
7928.710938	-92.611023
7929.687500	-92.611320
7930.664062	-92.611656
7931.640625	-92.611992
7932.617188	-92.612289
7933.593750	-92.612587
7934.570312	-92.612877
7935.546875	-92.613182
7936.523438	-92.613503
7937.500000	-92.613815
7938.476562	-92.614098
7939.453125	-92.614372
7940.429688	-92.614594
7941.406250	-92.614883
7942.382812	-92.615173
7943.359375	-92.615402
7944.335938	-92.615700
7945.312500	-92.615944
7946.289062	-92.616173
7947.265625	-92.616455
7948.242188	-92.616692
7949.218750	-92.616928
7950.195312	-92.617157
7951.171875	-92.617386
7952.148438	-92.617607
7953.125000	-92.617813
7954.101562	-92.618027
7955.078125	-92.618217
7956.054688	-92.618454
7957.031250	-92.618629
7958.007812	-92.618820
7958.984375	-92.619026
7959.960938	-92.619179
7960.937500	-92.619377
7961.914062	-92.619553
7962.890625	-92.619743
7963.867188	-92.619881
7964.843750	-92.620087
7965.820312	-92.620216
7966.796875	-92.620361
7967.773438	-92.620522
7968.750000	-92.620712
7969.726562	-92.620819
7970.703125	-92.620956
7971.679688	-92.621101
7972.656250	-92.621231
7973.632812	-92.621307
7974.609375	-92.621468
7975.585938	-92.621536
7976.562500	-92.621658
7977.539062	-92.621773
7978.515625	-92.621895
7979.492188	-92.621979
7980.468750	-92.622086
7981.445312	-92.622185
7982.421875	-92.622246
7983.398438	-92.622314
7984.375000	-92.622429
7985.351562	-92.622490
7986.328125	-92.622520
7987.304688	-92.622589
7988.281250	-92.622650
7989.257812	-92.622726
7990.234375	-92.622749
7991.210938	-92.622780
7992.187500	-92.622833
7993.164062	-92.622871
7994.140625	-92.622894
7995.117188	-92.622940
7996.093750	-92.622955
7997.070312	-92.622963
7998.046875	-92.622993
7999.023438	-92.622948
