Frequency (Hz)	Level (dB)
0.976562	-93.591087
1.953125	-93.529602
2.929688	-93.492683
3.906250	-92.228806
4.882812	-92.610466
5.859375	-91.600304
6.835938	-90.865730
7.812500	-91.821632
8.789062	-91.442253
9.765625	-89.325729
10.742188	-87.465530
11.718750	-85.138657
12.695312	-86.122932
13.671875	-86.342812
14.648438	-86.198166
15.625000	-86.872948
16.601562	-85.759140
17.578125	-86.479309
18.554688	-84.415047
19.531250	-84.559334
20.507812	-84.615067
21.484375	-83.956223
22.460938	-84.645416
23.437500	-81.487656
24.414062	-82.235924
25.390625	-81.681458
26.367188	-81.778191
27.343750	-82.889015
28.320312	-81.682243
29.296875	-82.355301
30.273438	-83.066696
31.250000	-84.118553
32.226562	-82.143684
33.203125	-84.570694
34.179688	-84.922050
35.156250	-83.067276
36.132812	-83.138306
37.109375	-83.091530
38.085938	-84.847313
39.062500	-81.838432
40.039062	-81.762215
41.015625	-82.441811
41.992188	-82.136688
42.968750	-82.411385
43.945312	-83.395897
44.921875	-82.835297
45.898438	-82.618202
46.875000	-83.391350
47.851562	-81.853340
48.828125	-82.172829
49.804688	-81.996765
50.781250	-80.793297
51.757812	-81.620171
52.734375	-80.917130
53.710938	-80.353790
54.687500	-80.253098
55.664062	-79.900398
56.640625	-79.658340
57.617188	-79.602036
58.593750	-79.948593
59.570312	-79.386696
60.546875	-78.141907
61.523438	-78.238373
62.500000	-77.027145
63.476562	-78.913551
64.453125	-81.986023
65.429688	-81.629227
66.406250	-82.230759
67.382812	-82.470810
68.359375	-82.301399
69.335938	-79.107758
70.312500	-80.312607
71.289062	-80.306847
72.265625	-81.014992
73.242188	-79.896103
74.218750	-79.971367
75.195312	-79.684410
76.171875	-81.215042
77.148438	-79.873184
78.125000	-80.942093
79.101562	-81.613770
80.078125	-82.494530
81.054688	-82.582275
82.031250	-82.821304
83.007812	-81.749504
83.984375	-80.207512
84.960938	-79.594589
85.937500	-80.822479
86.914062	-79.008224
87.890625	-79.950989
88.867188	-81.337776
89.843750	-81.830177
90.820312	-80.439697
91.796875	-81.439857
92.773438	-82.040695
93.750000	-81.743500
94.726562	-81.769943
95.703125	-81.060066
96.679688	-80.419373
97.656250	-82.038040
98.632812	-80.648026
99.609375	-81.015038
100.585938	-80.604256
101.562500	-79.978668
102.539062	-80.548996
103.515625	-80.154366
104.492188	-80.860947
105.468750	-81.255516
106.445312	-80.638290
107.421875	-81.428703
108.398438	-81.283440
109.375000	-79.933395
110.351562	-79.901497
111.328125	-80.560532
112.304688	-81.247894
113.281250	-79.529274
114.257812	-79.148956
115.234375	-79.761894
116.210938	-79.416687
117.187500	-79.775604
118.164062	-75.486275
119.140625	-76.816063
120.117188	-69.340897
121.093750	-73.767342
122.070312	-79.061661
123.046875	-79.470154
124.023438	-80.455589
125.000000	-79.339401
125.976562	-80.328972
126.953125	-79.975777
127.929688	-80.168648
128.906250	-79.980217
129.882812	-79.880905
130.859375	-79.571449
131.835938	-80.078606
132.812500	-79.314362
133.789062	-80.062393
134.765625	-81.204872
135.742188	-78.367958
136.718750	-80.443710
137.695312	-80.098267
138.671875	-80.254791
139.648438	-79.475586
140.625000	-78.391106
141.601562	-79.981453
142.578125	-79.407768
143.554688	-80.101807
144.531250	-78.644501
145.507812	-78.706314
146.484375	-78.381668
147.460938	-79.714310
148.437500	-78.970749
149.414062	-77.770241
150.390625	-78.156364
151.367188	-79.372032
152.343750	-78.344376
153.320312	-78.563286
154.296875	-78.975449
155.273438	-77.956741
156.250000	-77.990097
157.226562	-78.404137
158.203125	-78.092247
159.179688	-79.446564
160.156250	-77.272255
161.132812	-79.173279
162.109375	-76.751625
163.085938	-78.708466
164.062500	-79.526398
165.039062	-77.622101
166.015625	-76.779655
166.992188	-77.516884
167.968750	-78.056450
168.945312	-78.858795
169.921875	-78.276909
170.898438	-78.025703
171.875000	-77.908134
172.851562	-77.798683
173.828125	-77.965317
174.804688	-77.481583
175.781250	-78.240944
176.757812	-77.205276
177.734375	-77.045891
178.710938	-76.883171
179.687500	-76.561607
180.664062	-77.047752
181.640625	-78.913330
182.617188	-76.722206
183.593750	-77.361328
184.570312	-76.616043
185.546875	-76.430145
186.523438	-76.806320
187.500000	-78.410057
188.476562	-76.823563
189.453125	-76.556915
190.429688	-76.196220
191.406250	-77.510727
192.382812	-75.048409
193.359375	-76.139465
194.335938	-74.515900
195.312500	-74.339127
196.289062	-75.990036
197.265625	-76.368668
198.242188	-75.137802
199.218750	-74.488068
200.195312	-74.708336
201.171875	-75.422104
202.148438	-73.529022
203.125000	-74.204193
204.101562	-75.241486
205.078125	-74.725998
206.054688	-73.888947
207.031250	-74.106659
208.007812	-74.580154
208.984375	-74.954079
209.960938	-74.008217
210.937500	-74.167084
211.914062	-73.758202
212.890625	-72.707489
213.867188	-71.224739
214.843750	-72.291656
215.820312	-72.852150
216.796875	-71.946533
217.773438	-72.053780
218.750000	-73.852509
219.726562	-72.356674
220.703125	-71.877640
221.679688	-72.094551
222.656250	-72.966614
223.632812	-71.159393
224.609375	-71.417328
225.585938	-72.773804
226.562500	-71.867561
227.539062	-70.156425
228.515625	-72.319298
229.492188	-70.797607
230.468750	-71.115692
231.445312	-70.393044
232.421875	-70.175507
233.398438	-69.373390
234.375000	-69.044441
235.351562	-70.305161
236.328125	-69.568764
237.304688	-69.227875
238.281250	-71.077209
239.257812	-68.524841
240.234375	-67.306496
241.210938	-63.847485
242.187500	-63.072010
243.164062	-67.722969
244.140625	-66.848648
245.117188	-66.741920
246.093750	-66.827202
247.070312	-66.280029
248.046875	-66.298996
249.023438	-65.878166
250.000000	-64.668861
250.976562	-65.619431
251.953125	-65.409660
252.929688	-64.024460
253.906250	-63.965244
254.882812	-63.828579
255.859375	-61.809963
256.835938	-63.593464
257.812500	-63.602234
258.789062	-63.733639
259.765625	-64.654488
260.742188	-63.303257
261.718750	-63.566692
262.695312	-62.852776
263.671875	-63.348679
264.648438	-62.839893
265.625000	-61.868553
266.601562	-62.519703
267.578125	-61.517586
268.554688	-61.253674
269.531250	-64.206886
270.507812	-62.630550
271.484375	-62.738792
272.460938	-63.202118
273.437500	-64.552513
274.414062	-64.266800
275.390625	-63.650875
276.367188	-63.489689
277.343750	-63.424938
278.320312	-64.917328
279.296875	-65.834061
280.273438	-66.500404
281.250000	-66.274925
282.226562	-65.531303
283.203125	-65.866722
284.179688	-66.738113
285.156250	-66.108978
286.132812	-66.254547
287.109375	-67.117722
288.085938	-66.624969
289.062500	-67.095871
290.039062	-66.715958
291.015625	-67.609695
291.992188	-67.943466
292.968750	-67.688126
293.945312	-67.914925
294.921875	-68.328613
295.898438	-69.092308
296.875000	-68.982246
297.851562	-70.341232
298.828125	-70.078934
299.804688	-69.987282
300.781250	-70.421745
301.757812	-69.669411
302.734375	-69.375069
303.710938	-70.749504
304.687500	-71.667824
305.664062	-71.042038
306.640625	-69.674858
307.617188	-71.000839
308.593750	-71.170364
309.570312	-69.541306
310.546875	-72.283600
311.523438	-72.667435
312.500000	-71.278336
313.476562	-71.598724
314.453125	-70.803932
315.429688	-71.463806
316.406250	-71.432793
317.382812	-71.567818
318.359375	-72.079491
319.335938	-72.835152
320.312500	-73.219246
321.289062	-73.151817
322.265625	-73.048714
323.242188	-72.998215
324.218750	-72.482346
325.195312	-73.407303
326.171875	-73.859154
327.148438	-73.497231
328.125000	-74.233421
329.101562	-72.418800
330.078125	-72.934769
331.054688	-72.366714
332.031250	-73.191849
333.007812	-73.242233
333.984375	-73.571342
334.960938	-73.459259
335.937500	-74.263420
336.914062	-74.123253
337.890625	-73.547066
338.867188	-74.035011
339.843750	-75.157051
340.820312	-74.585121
341.796875	-74.489449
342.773438	-74.852730
343.750000	-73.574875
344.726562	-74.891861
345.703125	-74.560310
346.679688	-74.675438
347.656250	-74.725418
348.632812	-74.723328
349.609375	-75.789757
350.585938	-76.084618
351.562500	-73.155220
352.539062	-74.465034
353.515625	-74.416222
354.492188	-74.055939
355.468750	-74.519600
356.445312	-74.572151
357.421875	-75.542313
358.398438	-77.742409
359.375000	-74.811195
360.351562	-74.634682
361.328125	-76.435661
362.304688	-74.705170
363.281250	-75.427666
364.257812	-75.332825
365.234375	-76.558403
366.210938	-77.955948
367.187500	-75.493195
368.164062	-76.192818
369.140625	-75.215584
370.117188	-75.915558
371.093750	-75.602753
372.070312	-76.087334
373.046875	-74.638649
374.023438	-75.383820
375.000000	-75.657211
375.976562	-75.513397
376.953125	-75.755486
377.929688	-75.740837
378.906250	-75.543106
379.882812	-75.650063
380.859375	-75.291206
381.835938	-75.332634
382.812500	-75.381424
383.789062	-75.860062
384.765625	-75.522705
385.742188	-75.893600
386.718750	-75.628685
387.695312	-76.598640
388.671875	-76.066727
389.648438	-74.618080
390.625000	-75.173531
391.601562	-76.267754
392.578125	-77.574524
393.554688	-76.669525
394.531250	-76.233047
395.507812	-75.936501
396.484375	-75.497665
397.460938	-75.919655
398.437500	-76.310486
399.414062	-75.691765
400.390625	-76.586594
401.367188	-75.630325
402.343750	-75.808945
403.320312	-75.374756
404.296875	-75.249008
405.273438	-77.262047
406.250000	-76.000000
407.226562	-75.938057
408.203125	-76.005562
409.179688	-76.308411
410.156250	-76.835457
411.132812	-75.672272
412.109375	-75.408493
413.085938	-74.870689
414.062500	-76.653740
415.039062	-75.921387
416.015625	-75.218361
416.992188	-75.165573
417.968750	-76.123032
418.945312	-75.525475
419.921875	-76.547058
420.898438	-75.469170
421.875000	-75.631012
422.851562	-74.988556
423.828125	-75.610771
424.804688	-74.244492
425.781250	-74.468292
426.757812	-75.004318
427.734375	-75.671318
428.710938	-75.963089
429.687500	-74.577614
430.664062	-75.071281
431.640625	-73.554382
432.617188	-74.681465
433.593750	-75.272949
434.570312	-75.275864
435.546875	-73.803711
436.523438	-75.188454
437.500000	-73.487816
438.476562	-74.560661
439.453125	-74.118347
440.429688	-75.255188
441.406250	-74.182091
442.382812	-74.472786
443.359375	-74.689430
444.335938	-73.652069
445.312500	-75.208351
446.289062	-75.021271
447.265625	-72.974007
448.242188	-74.505394
449.218750	-72.939812
450.195312	-74.589958
451.171875	-73.648705
452.148438	-73.773697
453.125000	-74.411705
454.101562	-73.641808
455.078125	-73.157082
456.054688	-73.779312
457.031250	-74.262505
458.007812	-73.457138
458.984375	-73.143394
459.960938	-72.814484
460.937500	-72.519493
461.914062	-73.196777
462.890625	-72.171059
463.867188	-72.707039
464.843750	-72.596703
465.820312	-73.321228
466.796875	-71.807236
467.773438	-71.550674
468.750000	-72.308472
469.726562	-71.276329
470.703125	-71.684326
471.679688	-72.315926
472.656250	-70.915482
473.632812	-72.876396
474.609375	-71.816132
475.585938	-71.872971
476.562500	-71.034454
477.539062	-71.408257
478.515625	-70.861519
479.492188	-71.698097
480.468750	-70.820114
481.445312	-70.005836
482.421875	-71.369301
483.398438	-70.075111
484.375000	-70.106735
485.351562	-70.212379
486.328125	-70.723526
487.304688	-69.717560
488.281250	-70.854790
489.257812	-68.315285
490.234375	-68.677483
491.210938	-69.356026
492.187500	-70.057205
493.164062	-67.348473
494.140625	-68.762695
495.117188	-68.028488
496.093750	-67.655220
497.070312	-69.517326
498.046875	-68.148727
499.023438	-67.729034
500.000000	-69.778336
500.976562	-67.057159
501.953125	-66.039345
502.929688	-66.950752
503.906250	-66.829681
504.882812	-66.679108
505.859375	-66.015938
506.835938	-65.616264
507.812500	-65.538445
508.789062	-66.058128
509.765625	-66.478897
510.742188	-64.269745
511.718750	-64.248177
512.695312	-64.029861
513.671875	-65.172737
514.648438	-64.286186
515.625000	-63.288681
516.601562	-63.114113
517.578125	-63.791859
518.554688	-62.856686
519.531250	-62.819637
520.507812	-62.678852
521.484375	-62.120186
522.460938	-62.958809
523.437500	-62.593113
524.414062	-61.959698
525.390625	-62.248379
526.367188	-62.186886
527.343750	-62.017189
528.320312	-61.760429
529.296875	-61.025368
530.273438	-61.484806
531.250000	-61.082161
532.226562	-60.772255
533.203125	-60.143101
534.179688	-61.545918
535.156250	-61.809277
536.132812	-61.530769
537.109375	-61.819870
538.085938	-62.145733
539.062500	-61.394920
540.039062	-62.783096
541.015625	-63.557632
541.992188	-62.601994
542.968750	-62.015232
543.945312	-63.181393
544.921875	-63.843933
545.898438	-64.807465
546.875000	-64.727676
547.851562	-63.638409
548.828125	-64.830139
549.804688	-64.736229
550.781250	-65.055855
551.757812	-66.462372
552.734375	-64.385582
553.710938	-65.049942
554.687500	-64.913002
555.664062	-65.453995
556.640625	-66.696426
557.617188	-66.512428
558.593750	-65.698135
559.570312	-66.252777
560.546875	-68.159302
561.523438	-68.200493
562.500000	-67.631454
563.476562	-66.423195
564.453125	-67.458237
565.429688	-68.626114
566.406250	-68.918785
567.382812	-67.891640
568.359375	-68.705063
569.335938	-68.664978
570.312500	-68.626923
571.289062	-69.743393
572.265625	-68.935188
573.242188	-68.791183
574.218750	-71.443298
575.195312	-70.632744
576.171875	-69.283058
577.148438	-69.872276
578.125000	-70.247475
579.101562	-71.142326
580.078125	-70.335625
581.054688	-70.550323
582.031250	-71.128555
583.007812	-70.277229
583.984375	-70.998833
584.960938	-71.683578
585.937500	-71.265785
586.914062	-70.716194
587.890625	-71.198273
588.867188	-71.328979
589.843750	-71.071571
590.820312	-70.890312
591.796875	-72.760986
592.773438	-71.128448
593.750000	-71.547165
594.726562	-72.097977
595.703125	-73.031876
596.679688	-71.340744
597.656250	-71.612068
598.632812	-72.447731
599.609375	-71.306458
600.585938	-73.554497
601.562500	-71.903290
602.539062	-72.654900
603.515625	-72.727264
604.492188	-72.967026
605.468750	-72.119392
606.445312	-72.675392
607.421875	-72.368225
608.398438	-74.364960
609.375000	-73.669861
610.351562	-72.531136
611.328125	-73.587654
612.304688	-72.596474
613.281250	-73.981262
614.257812	-74.256752
615.234375	-72.814308
616.210938	-72.619331
617.187500	-73.001282
618.164062	-73.399300
619.140625	-75.007629
620.117188	-73.101875
621.093750	-73.352150
622.070312	-73.646790
623.046875	-73.720093
624.023438	-74.107574
625.000000	-73.685898
625.976562	-73.824608
626.953125	-72.570831
627.929688	-73.195572
628.906250	-74.754105
629.882812	-74.053421
630.859375	-74.650200
631.835938	-75.071297
632.812500	-73.114784
633.789062	-72.751076
634.765625	-75.876617
635.742188	-74.327362
636.718750	-73.636559
637.695312	-73.854317
638.671875	-73.171066
639.648438	-73.981644
640.625000	-74.532310
641.601562	-74.871567
642.578125	-73.525124
643.554688	-74.422607
644.531250	-73.782959
645.507812	-72.900032
646.484375	-74.392052
647.460938	-74.220779
648.437500	-74.416321
649.414062	-74.062950
650.390625	-74.146019
651.367188	-73.638336
652.343750	-73.168732
653.320312	-74.111877
654.296875	-74.310562
655.273438	-74.623016
656.250000	-74.069130
657.226562	-75.024307
658.203125	-74.648849
659.179688	-74.681763
660.156250	-74.232292
661.132812	-75.120979
662.109375	-74.546913
663.085938	-74.139992
664.062500	-74.250847
665.039062	-74.313751
666.015625	-74.584717
666.992188	-74.501389
667.968750	-75.365967
668.945312	-74.271805
669.921875	-74.727295
670.898438	-74.971268
671.875000	-74.883659
672.851562	-73.914627
673.828125	-74.622559
674.804688	-74.302864
675.781250	-75.740906
676.757812	-74.063484
677.734375	-74.986465
678.710938	-74.240883
679.687500	-74.816605
680.664062	-73.914230
681.640625	-72.602119
682.617188	-73.581619
683.593750	-73.072029
684.570312	-73.524002
685.546875	-73.388367
686.523438	-73.399406
687.500000	-74.902321
688.476562	-73.841492
689.453125	-73.991890
690.429688	-75.200523
691.406250	-74.268593
692.382812	-73.709496
693.359375	-73.643036
694.335938	-74.644638
695.312500	-74.330322
696.289062	-75.529816
697.265625	-73.287857
698.242188	-72.983276
699.218750	-74.868675
700.195312	-74.137238
701.171875	-72.981071
702.148438	-73.605164
703.125000	-72.959183
704.101562	-72.243149
705.078125	-72.650894
706.054688	-72.774216
707.031250	-73.239304
708.007812	-74.063896
708.984375	-73.164673
709.960938	-73.152267
710.937500	-71.834602
711.914062	-72.679092
712.890625	-73.538834
713.867188	-71.954109
714.843750	-72.906998
715.820312	-71.627754
716.796875	-72.284996
717.773438	-72.206116
718.750000	-72.107910
719.726562	-72.166817
720.703125	-72.496666
721.679688	-71.369003
722.656250	-72.034637
723.632812	-71.891319
724.609375	-72.086922
725.585938	-70.733231
726.562500	-70.429466
727.539062	-72.756485
728.515625	-71.292801
729.492188	-71.918121
730.468750	-70.561844
731.445312	-70.534332
732.421875	-71.542114
733.398438	-72.121216
734.375000	-69.887093
735.351562	-70.620453
736.328125	-70.701706
737.304688	-71.489586
738.281250	-70.147881
739.257812	-69.139854
740.234375	-69.439064
741.210938	-70.844154
742.187500	-68.489349
743.164062	-68.900948
744.140625	-70.583107
745.117188	-69.206215
746.093750	-69.190666
747.070312	-69.787430
748.046875	-68.669556
749.023438	-68.684059
750.000000	-69.121277
750.976562	-68.552910
751.953125	-67.888405
752.929688	-69.278008
753.906250	-68.128044
754.882812	-67.891052
755.859375	-68.939278
756.835938	-67.877998
757.812500	-67.555061
758.789062	-67.596710
759.765625	-66.870491
760.742188	-67.163795
761.718750	-67.606606
762.695312	-66.839180
763.671875	-66.482254
764.648438	-65.777679
765.625000	-65.965508
766.601562	-66.262070
767.578125	-65.409615
768.554688	-65.124458
769.531250	-65.463837
770.507812	-65.555397
771.484375	-65.507973
772.460938	-65.867691
773.437500	-65.122643
774.414062	-64.308891
775.390625	-62.572853
776.367188	-63.860840
777.343750	-63.951515
778.320312	-63.817192
779.296875	-63.327621
780.273438	-63.656757
781.250000	-63.447819
782.226562	-63.754448
783.203125	-62.563526
784.179688	-61.237293
785.156250	-61.448830
786.132812	-61.399704
787.109375	-60.479862
788.085938	-59.822220
789.062500	-61.236725
790.039062	-60.749344
791.015625	-60.985767
791.992188	-59.260334
792.968750	-59.640343
793.945312	-59.616604
794.921875	-59.750568
795.898438	-59.316010
796.875000	-58.923050
797.851562	-57.859982
798.828125	-58.020309
799.804688	-59.036846
800.781250	-59.321705
801.757812	-59.719830
802.734375	-60.008377
803.710938	-59.977184
804.687500	-60.048454
805.664062	-59.336983
806.640625	-60.867386
807.617188	-60.583324
808.593750	-60.472885
809.570312	-60.070065
810.546875	-60.750969
811.523438	-62.357979
812.500000	-61.536690
813.476562	-60.804924
814.453125	-61.804409
815.429688	-62.122360
816.406250	-61.888596
817.382812	-62.966972
818.359375	-62.977116
819.335938	-63.053291
820.312500	-62.815155
821.289062	-64.023170
822.265625	-64.846725
823.242188	-63.831860
824.218750	-64.862488
825.195312	-63.746685
826.171875	-64.451424
827.148438	-63.830677
828.125000	-66.209679
829.101562	-65.766914
830.078125	-65.334488
831.054688	-65.109261
832.031250	-65.833900
833.007812	-66.918411
833.984375	-65.985039
834.960938	-66.857925
835.937500	-67.256485
836.914062	-67.100914
837.890625	-68.193382
838.867188	-66.616234
839.843750	-68.191895
840.820312	-68.404350
841.796875	-67.651703
842.773438	-68.329300
843.750000	-68.013718
844.726562	-67.346863
845.703125	-68.755951
846.679688	-68.983582
847.656250	-67.679199
848.632812	-68.007423
849.609375	-68.288582
850.585938	-68.775963
851.562500	-69.404037
852.539062	-68.762749
853.515625	-69.101891
854.492188	-69.272942
855.468750	-69.423119
856.445312	-69.141235
857.421875	-68.487411
858.398438	-70.289520
859.375000	-70.149773
860.351562	-70.016457
861.328125	-70.325905
862.304688	-69.277634
863.281250	-71.317635
864.257812	-69.669357
865.234375	-70.893257
866.210938	-70.040115
867.187500	-70.612045
868.164062	-69.850105
869.140625	-69.981949
870.117188	-69.695129
871.093750	-70.548813
872.070312	-69.955460
873.046875	-70.794182
874.023438	-70.208527
875.000000	-71.353600
875.976562	-70.852150
876.953125	-71.105659
877.929688	-72.048889
878.906250	-73.016357
879.882812	-71.484871
880.859375	-70.476936
881.835938	-70.586716
882.812500	-70.867043
883.789062	-71.686401
884.765625	-72.458069
885.742188	-71.829132
886.718750	-70.453728
887.695312	-71.328308
888.671875	-72.325287
889.648438	-70.263969
890.625000	-72.375816
891.601562	-72.097908
892.578125	-72.614166
893.554688	-73.343590
894.531250	-72.348068
895.507812	-72.469681
896.484375	-72.696815
897.460938	-72.018501
898.437500	-72.826172
899.414062	-73.037804
900.390625	-72.420738
901.367188	-71.641487
902.343750	-71.382935
903.320312	-72.043327
904.296875	-73.050064
905.273438	-72.862648
906.250000	-71.375389
907.226562	-71.961426
908.203125	-72.905701
909.179688	-72.227440
910.156250	-73.003052
911.132812	-72.957169
912.109375	-71.026520
913.085938	-73.017792
914.062500	-72.584145
915.039062	-73.035713
916.015625	-73.928909
916.992188	-72.048134
917.968750	-72.061165
918.945312	-72.708900
919.921875	-72.616425
920.898438	-72.335922
921.875000	-72.765747
922.851562	-72.998871
923.828125	-71.694992
924.804688	-73.016846
925.781250	-72.516434
926.757812	-72.652451
927.734375	-73.339264
928.710938	-72.944191
929.687500	-72.660583
930.664062	-72.644112
931.640625	-72.337738
932.617188	-70.937614
933.593750	-72.859238
934.570312	-72.547134
935.546875	-71.407272
936.523438	-72.585289
937.500000	-72.338188
938.476562	-72.198334
939.453125	-73.059128
940.429688	-71.730431
941.406250	-71.508820
942.382812	-72.340172
943.359375	-72.797737
944.335938	-72.503342
945.312500	-72.135712
946.289062	-73.236847
947.265625	-72.228287
948.242188	-72.004112
949.218750	-71.075645
950.195312	-71.899208
951.171875	-73.117874
952.148438	-72.141151
953.125000	-71.419777
954.101562	-72.550957
955.078125	-71.914749
956.054688	-72.579826
957.031250	-71.864845
958.007812	-71.817841
958.984375	-71.393234
959.960938	-72.904129
960.937500	-72.468094
961.914062	-72.167519
962.890625	-71.902100
963.867188	-71.364059
964.843750	-71.608063
965.820312	-72.310600
966.796875	-71.996628
967.773438	-72.004143
968.750000	-72.095612
969.726562	-72.869606
970.703125	-70.652023
971.679688	-70.761475
972.656250	-70.880341
973.632812	-70.848297
974.609375	-70.535744
975.585938	-71.127090
976.562500	-71.566048
977.539062	-70.430084
978.515625	-70.404007
979.492188	-70.176643
980.468750	-70.648369
981.445312	-70.246544
982.421875	-71.025093
983.398438	-70.527199
984.375000	-71.037483
985.351562	-70.050301
986.328125	-69.840668
987.304688	-69.212402
988.281250	-70.636597
989.257812	-72.034508
990.234375	-70.715332
991.210938	-70.469780
992.187500	-69.492500
993.164062	-70.093399
994.140625	-69.633293
995.117188	-70.353012
996.093750	-69.984962
997.070312	-69.220787
998.046875	-69.313850
999.023438	-69.464813
1000.000000	-69.380219
1000.976562	-67.314865
1001.953125	-68.608406
1002.929688	-67.664085
1003.906250	-68.398056
1004.882812	-68.498184
1005.859375	-67.004829
1006.835938	-68.261734
1007.812500	-68.288872
1008.789062	-68.175194
1009.765625	-67.474571
1010.742188	-68.131317
1011.718750	-68.183739
1012.695312	-68.681313
1013.671875	-67.777969
1014.648438	-66.718422
1015.625000	-66.232918
1016.601562	-66.462822
1017.578125	-66.302673
1018.554688	-65.931541
1019.531250	-65.332283
1020.507812	-66.041710
1021.484375	-65.910591
1022.460938	-66.661758
1023.437500	-65.758156
1024.414062	-65.900795
1025.390625	-64.074333
1026.367188	-66.157211
1027.343750	-64.487976
1028.320312	-65.205948
1029.296875	-64.724464
1030.273438	-64.394150
1031.250000	-65.021736
1032.226562	-65.726219
1033.203125	-63.722435
1034.179688	-64.037239
1035.156250	-63.759377
1036.132812	-62.639961
1037.109375	-62.921631
1038.085938	-63.762440
1039.062500	-61.475189
1040.039062	-63.615955
1041.015625	-62.127922
1041.992188	-61.784348
1042.968750	-62.258766
1043.945312	-60.514408
1044.921875	-60.471649
1045.898438	-59.873077
1046.875000	-59.471443
1047.851562	-59.222851
1048.828125	-59.884598
1049.804688	-58.974277
1050.781250	-58.846615
1051.757812	-59.100521
1052.734375	-60.590492
1053.710938	-59.058990
1054.687500	-58.367359
1055.664062	-58.630074
1056.640625	-57.996487
1057.617188	-58.074726
1058.593750	-58.993477
1059.570312	-57.620251
1060.546875	-56.960514
1061.523438	-57.300125
1062.500000	-59.079632
1063.476562	-59.105343
1064.453125	-59.098541
1065.429688	-58.097530
1066.406250	-57.989914
1067.382812	-58.087353
1068.359375	-58.391506
1069.335938	-56.991310
1070.312500	-58.873806
1071.289062	-60.166393
1072.265625	-58.173244
1073.242188	-57.898853
1074.218750	-58.865025
1075.195312	-60.103737
1076.171875	-60.253544
1077.148438	-60.621998
1078.125000	-61.370758
1079.101562	-60.585201
1080.078125	-61.018002
1081.054688	-61.134346
1082.031250	-61.852795
1083.007812	-62.344326
1083.984375	-62.243557
1084.960938	-61.811954
1085.937500	-61.898277
1086.914062	-62.747974
1087.890625	-61.542328
1088.867188	-63.523834
1089.843750	-64.450089
1090.820312	-63.584576
1091.796875	-65.138123
1092.773438	-63.627766
1093.750000	-64.094467
1094.726562	-64.994041
1095.703125	-63.294525
1096.679688	-63.623158
1097.656250	-65.177330
1098.632812	-64.751724
1099.609375	-64.216179
1100.585938	-65.496902
1101.562500	-64.025787
1102.539062	-64.351532
1103.515625	-64.772705
1104.492188	-65.622261
1105.468750	-66.557785
1106.445312	-64.751892
1107.421875	-66.474525
1108.398438	-66.036423
1109.375000	-67.010826
1110.351562	-66.720367
1111.328125	-66.335686
1112.304688	-67.077690
1113.281250	-68.549393
1114.257812	-66.905655
1115.234375	-65.538147
1116.210938	-67.593163
1117.187500	-66.838966
1118.164062	-67.943794
1119.140625	-67.186569
1120.117188	-66.358154
1121.093750	-67.219742
1122.070312	-67.196785
1123.046875	-66.335854
1124.023438	-67.648376
1125.000000	-67.471222
1125.976562	-66.504669
1126.953125	-69.025490
1127.929688	-68.215080
1128.906250	-68.304268
1129.882812	-68.868546
1130.859375	-66.935547
1131.835938	-68.740845
1132.812500	-67.994545
1133.789062	-67.923271
1134.765625	-69.263306
1135.742188	-70.097412
1136.718750	-68.244820
1137.695312	-69.008759
1138.671875	-68.259674
1139.648438	-68.538094
1140.625000	-68.451309
1141.601562	-69.388199
1142.578125	-70.190605
1143.554688	-68.132019
1144.531250	-71.170479
1145.507812	-69.730476
1146.484375	-70.505379
1147.460938	-70.104637
1148.437500	-68.851212
1149.414062	-70.306564
1150.390625	-69.587395
1151.367188	-69.375893
1152.343750	-69.375931
1153.320312	-68.859428
1154.296875	-70.549080
1155.273438	-70.571968
1156.250000	-70.123764
1157.226562	-71.102989
1158.203125	-71.703880
1159.179688	-69.872337
1160.156250	-70.093521
1161.132812	-71.758118
1162.109375	-71.129890
1163.085938	-71.462715
1164.062500	-71.071541
1165.039062	-71.026772
1166.015625	-71.261414
1166.992188	-71.106728
1167.968750	-71.073280
1168.945312	-69.793015
1169.921875	-70.078148
1170.898438	-71.385887
1171.875000	-70.640114
1172.851562	-71.237213
1173.828125	-71.786003
1174.804688	-71.117691
1175.781250	-70.880974
1176.757812	-71.469818
1177.734375	-71.456863
1178.710938	-72.955673
1179.687500	-71.822632
1180.664062	-72.083275
1181.640625	-70.868347
1182.617188	-71.114677
1183.593750	-70.815300
1184.570312	-72.058037
1185.546875	-71.324524
1186.523438	-70.336586
1187.500000	-72.230644
1188.476562	-72.358696
1189.453125	-70.862206
1190.429688	-71.412392
1191.406250	-71.111145
1192.382812	-70.846565
1193.359375	-72.161880
1194.335938	-71.057388
1195.312500	-70.731262
1196.289062	-71.960236
1197.265625	-72.719009
1198.242188	-72.339188
1199.218750	-72.692505
1200.195312	-71.770088
1201.171875	-71.260010
1202.148438	-71.578407
1203.125000	-70.424980
1204.101562	-71.706444
1205.078125	-71.002235
1206.054688	-72.033012
1207.031250	-72.247238
1208.007812	-71.059387
1208.984375	-71.426048
1209.960938	-70.790077
1210.937500	-71.967499
1211.914062	-72.198151
1212.890625	-70.882111
1213.867188	-71.502312
1214.843750	-72.189804
1215.820312	-71.859688
1216.796875	-71.786606
1217.773438	-69.910881
1218.750000	-70.979851
1219.726562	-71.192924
1220.703125	-71.444817
1221.679688	-71.284538
1222.656250	-71.570343
1223.632812	-70.874390
1224.609375	-71.434059
1225.585938	-70.635071
1226.562500	-72.126694
1227.539062	-71.979004
1228.515625	-70.352692
1229.492188	-70.262474
1230.468750	-70.494713
1231.445312	-71.220070
1232.421875	-70.654205
1233.398438	-70.343399
1234.375000	-71.389786
1235.351562	-70.865891
1236.328125	-70.771484
1237.304688	-69.740387
1238.281250	-71.130844
1239.257812	-68.985359
1240.234375	-69.391991
1241.210938	-69.711929
1242.187500	-68.848427
1243.164062	-70.237305
1244.140625	-70.242081
1245.117188	-68.953804
1246.093750	-68.567123
1247.070312	-68.447578
1248.046875	-69.354996
1249.023438	-68.898941
1250.000000	-69.380928
1250.976562	-68.940956
1251.953125	-68.772766
1252.929688	-68.955429
1253.906250	-68.418221
1254.882812	-68.571449
1255.859375	-68.189758
1256.835938	-68.930489
1257.812500	-68.786942
1258.789062	-69.638435
1259.765625	-69.051956
1260.742188	-69.472649
1261.718750	-67.597122
1262.695312	-68.174530
1263.671875	-68.064438
1264.648438	-67.577736
1265.625000	-67.747482
1266.601562	-68.792305
1267.578125	-67.523376
1268.554688	-66.585281
1269.531250	-67.458611
1270.507812	-67.848076
1271.484375	-67.976402
1272.460938	-67.569733
1273.437500	-67.190056
1274.414062	-66.176826
1275.390625	-66.210899
1276.367188	-66.989510
1277.343750	-65.977661
1278.320312	-66.972008
1279.296875	-65.833481
1280.273438	-65.658424
1281.250000	-66.264084
1282.226562	-66.305756
1283.203125	-66.187737
1284.179688	-64.803635
1285.156250	-64.884224
1286.132812	-64.457321
1287.109375	-65.917419
1288.085938	-66.204002
1289.062500	-64.653839
1290.039062	-63.902489
1291.015625	-65.170204
1291.992188	-63.970959
1292.968750	-62.985069
1293.945312	-64.516037
1294.921875	-62.820248
1295.898438	-63.246078
1296.875000	-62.119812
1297.851562	-63.126740
1298.828125	-61.729469
1299.804688	-61.639771
1300.781250	-61.950100
1301.757812	-62.847260
1302.734375	-62.887424
1303.710938	-61.283962
1304.687500	-62.352364
1305.664062	-61.392078
1306.640625	-59.984081
1307.617188	-61.133476
1308.593750	-60.602173
1309.570312	-60.828716
1310.546875	-59.521484
1311.523438	-59.337402
1312.500000	-59.337238
1313.476562	-59.205215
1314.453125	-58.275276
1315.429688	-57.783421
1316.406250	-57.403744
1317.382812	-57.548927
1318.359375	-57.286476
1319.335938	-57.100426
1320.312500	-58.466663
1321.289062	-55.906475
1322.265625	-57.204643
1323.242188	-57.484833
1324.218750	-56.755234
1325.195312	-57.348278
1326.171875	-57.701458
1327.148438	-56.688343
1328.125000	-56.548817
1329.101562	-55.892628
1330.078125	-55.545410
1331.054688	-56.432125
1332.031250	-55.505661
1333.007812	-56.644554
1333.984375	-57.228039
1334.960938	-57.258263
1335.937500	-56.305180
1336.914062	-57.017609
1337.890625	-57.382820
1338.867188	-57.867531
1339.843750	-59.244122
1340.820312	-58.325447
1341.796875	-57.478703
1342.773438	-58.831974
1343.750000	-58.605911
1344.726562	-59.436378
1345.703125	-60.319782
1346.679688	-59.375130
1347.656250	-58.846409
1348.632812	-59.747051
1349.609375	-59.701263
1350.585938	-61.003510
1351.562500	-61.611988
1352.539062	-61.407665
1353.515625	-60.628597
1354.492188	-61.403286
1355.468750	-61.642166
1356.445312	-61.637638
1357.421875	-61.808582
1358.398438	-61.497475
1359.375000	-61.368366
1360.351562	-61.647739
1361.328125	-63.307884
1362.304688	-62.536812
1363.281250	-63.908062
1364.257812	-62.533955
1365.234375	-63.986980
1366.210938	-63.079552
1367.187500	-63.912628
1368.164062	-63.675846
1369.140625	-65.126892
1370.117188	-65.921646
1371.093750	-64.284111
1372.070312	-64.656197
1373.046875	-65.538666
1374.023438	-64.648033
1375.000000	-65.366219
1375.976562	-65.346535
1376.953125	-64.725166
1377.929688	-65.601608
1378.906250	-65.823654
1379.882812	-66.221115
1380.859375	-65.955231
1381.835938	-65.724159
1382.812500	-67.351494
1383.789062	-66.755180
1384.765625	-65.976151
1385.742188	-67.007378
1386.718750	-66.172409
1387.695312	-66.441185
1388.671875	-66.827805
1389.648438	-66.757187
1390.625000	-66.382767
1391.601562	-67.462669
1392.578125	-66.284309
1393.554688	-67.093452
1394.531250	-66.992416
1395.507812	-66.546028
1396.484375	-67.406242
1397.460938	-67.784584
1398.437500	-67.360031
1399.414062	-67.652252
1400.390625	-68.507034
1401.367188	-68.195694
1402.343750	-68.019089
1403.320312	-66.653862
1404.296875	-68.464691
1405.273438	-68.831291
1406.250000	-68.754303
1407.226562	-68.394936
1408.203125	-67.198677
1409.179688	-68.873558
1410.156250	-69.391380
1411.132812	-68.598434
1412.109375	-69.250580
1413.085938	-68.661942
1414.062500	-67.471664
1415.039062	-68.958580
1416.015625	-67.710754
1416.992188	-68.957275
1417.968750	-69.013817
1418.945312	-67.970749
1419.921875	-69.600731
1420.898438	-68.672325
1421.875000	-70.920532
1422.851562	-70.270630
1423.828125	-69.414795
1424.804688	-68.817482
1425.781250	-68.670578
1426.757812	-66.959290
1427.734375	-69.437057
1428.710938	-69.662498
1429.687500	-69.815880
1430.664062	-69.107231
1431.640625	-69.527412
1432.617188	-69.380180
1433.593750	-68.909676
1434.570312	-69.693352
1435.546875	-70.447922
1436.523438	-70.386612
1437.500000	-69.530495
1438.476562	-69.475426
1439.453125	-68.642403
1440.429688	-69.216301
1441.406250	-70.272797
1442.382812	-68.935730
1443.359375	-69.621223
1444.335938	-69.561981
1445.312500	-70.359779
1446.289062	-70.490318
1447.265625	-70.249504
1448.242188	-69.042747
1449.218750	-70.371498
1450.195312	-69.973068
1451.171875	-69.540276
1452.148438	-69.532486
1453.125000	-71.507278
1454.101562	-69.397881
1455.078125	-69.972069
1456.054688	-69.532608
1457.031250	-70.021568
1458.007812	-70.211517
1458.984375	-69.682899
1459.960938	-69.374969
1460.937500	-70.257812
1461.914062	-71.066902
1462.890625	-69.258690
1463.867188	-68.941139
1464.843750	-69.601112
1465.820312	-69.358337
1466.796875	-67.926704
1467.773438	-69.329880
1468.750000	-68.117599
1469.726562	-69.709045
1470.703125	-69.525078
1471.679688	-69.356186
1472.656250	-69.327301
1473.632812	-70.110710
1474.609375	-69.185936
1475.585938	-69.490074
1476.562500	-68.389374
1477.539062	-69.133675
1478.515625	-68.383041
1479.492188	-69.969719
1480.468750	-69.783623
1481.445312	-69.720528
1482.421875	-69.057129
1483.398438	-69.471069
1484.375000	-69.135727
1485.351562	-68.959854
1486.328125	-68.778091
1487.304688	-69.334763
1488.281250	-68.218727
1489.257812	-69.608902
1490.234375	-69.427689
1491.210938	-69.237518
1492.187500	-68.886292
1493.164062	-67.994888
1494.140625	-68.829376
1495.117188	-68.429169
1496.093750	-68.333061
1497.070312	-69.508759
1498.046875	-68.283195
1499.023438	-69.138260
1500.000000	-69.445404
1500.976562	-67.642075
1501.953125	-68.164482
1502.929688	-67.847855
1503.906250	-68.698921
1504.882812	-67.965683
1505.859375	-68.191879
1506.835938	-68.274803
1507.812500	-69.132362
1508.789062	-68.362938
1509.765625	-68.507217
1510.742188	-67.934074
1511.718750	-67.391693
1512.695312	-67.201637
1513.671875	-66.529640
1514.648438	-66.800644
1515.625000	-68.093651
1516.601562	-67.491264
1517.578125	-66.812820
1518.554688	-68.495117
1519.531250	-66.509422
1520.507812	-66.348564
1521.484375	-66.850990
1522.460938	-66.940887
1523.437500	-66.546844
1524.414062	-67.045700
1525.390625	-66.949753
1526.367188	-66.273560
1527.343750	-66.635361
1528.320312	-66.024597
1529.296875	-65.193092
1530.273438	-65.660233
1531.250000	-65.594948
1532.226562	-66.638008
1533.203125	-65.671356
1534.179688	-67.181206
1535.156250	-65.414474
1536.132812	-65.634392
1537.109375	-64.335449
1538.085938	-65.552841
1539.062500	-65.769913
1540.039062	-66.246124
1541.015625	-65.661095
1541.992188	-64.467018
1542.968750	-64.000999
1543.945312	-64.968010
1544.921875	-64.645027
1545.898438	-64.085510
1546.875000	-63.015213
1547.851562	-63.702263
1548.828125	-63.889744
1549.804688	-64.700684
1550.781250	-64.995193
1551.757812	-63.053799
1552.734375	-62.279327
1553.710938	-63.003757
1554.687500	-63.314194
1555.664062	-61.581818
1556.640625	-63.309826
1557.617188	-62.125366
1558.593750	-60.699818
1559.570312	-62.285084
1560.546875	-61.871353
1561.523438	-61.389683
1562.500000	-61.317955
1563.476562	-61.078453
1564.453125	-60.439953
1565.429688	-61.386345
1566.406250	-60.127453
1567.382812	-60.088707
1568.359375	-61.474224
1569.335938	-60.394634
1570.312500	-59.802624
1571.289062	-60.200233
1572.265625	-58.774704
1573.242188	-60.130638
1574.218750	-58.033035
1575.195312	-59.361668
1576.171875	-57.821815
1577.148438	-57.366539
1578.125000	-58.701942
1579.101562	-57.618500
1580.078125	-57.062828
1581.054688	-56.440685
1582.031250	-56.286095
1583.007812	-56.548328
1583.984375	-55.881729
1584.960938	-56.471294
1585.937500	-55.493237
1586.914062	-54.287395
1587.890625	-53.596470
1588.867188	-54.490891
1589.843750	-54.696232
1590.820312	-54.018864
1591.796875	-54.814869
1592.773438	-54.517204
1593.750000	-53.561268
1594.726562	-54.851849
1595.703125	-53.224861
1596.679688	-54.373192
1597.656250	-54.050938
1598.632812	-54.869446
1599.609375	-54.218349
1600.585938	-54.667797
1601.562500	-54.557384
1602.539062	-55.258968
1603.515625	-54.810677
1604.492188	-53.959385
1605.468750	-55.032234
1606.445312	-55.264275
1607.421875	-55.849571
1608.398438	-56.949707
1609.375000	-56.498440
1610.351562	-56.639038
1611.328125	-57.174843
1612.304688	-57.897564
1613.281250	-57.450924
1614.257812	-57.592007
1615.234375	-57.057102
1616.210938	-59.105305
1617.187500	-58.481007
1618.164062	-58.548244
1619.140625	-58.555050
1620.117188	-58.570477
1621.093750	-58.846706
1622.070312	-60.391544
1623.046875	-60.150208
1624.023438	-59.387280
1625.000000	-59.663387
1625.976562	-58.850029
1626.953125	-60.780075
1627.929688	-61.210068
1628.906250	-60.603607
1629.882812	-60.525440
1630.859375	-62.283951
1631.835938	-60.894363
1632.812500	-61.691666
1633.789062	-62.058811
1634.765625	-61.798664
1635.742188	-63.874645
1636.718750	-62.292866
1637.695312	-61.692875
1638.671875	-62.123562
1639.648438	-62.716213
1640.625000	-62.338234
1641.601562	-63.072876
1642.578125	-62.667309
1643.554688	-62.820187
1644.531250	-62.074448
1645.507812	-63.104198
1646.484375	-64.648987
1647.460938	-63.521484
1648.437500	-63.115154
1649.414062	-65.033142
1650.390625	-64.117683
1651.367188	-64.083199
1652.343750	-63.740082
1653.320312	-63.490574
1654.296875	-64.651321
1655.273438	-65.096901
1656.250000	-64.031342
1657.226562	-64.223846
1658.203125	-64.871216
1659.179688	-64.017853
1660.156250	-64.884430
1661.132812	-65.898666
1662.109375	-64.432816
1663.085938	-65.659950
1664.062500	-65.032913
1665.039062	-65.008072
1666.015625	-65.427696
1666.992188	-64.641258
1667.968750	-65.515999
1668.945312	-65.388695
1669.921875	-65.297920
1670.898438	-66.651550
1671.875000	-66.354965
1672.851562	-65.803101
1673.828125	-66.854675
1674.804688	-65.555695
1675.781250	-67.137978
1676.757812	-66.653816
1677.734375	-66.491974
1678.710938	-65.675461
1679.687500	-66.775543
1680.664062	-66.197052
1681.640625	-66.828369
1682.617188	-66.558113
1683.593750	-66.421318
1684.570312	-66.907875
1685.546875	-66.785744
1686.523438	-67.912529
1687.500000	-66.634796
1688.476562	-66.981461
1689.453125	-67.190292
1690.429688	-67.541946
1691.406250	-66.654457
1692.382812	-66.793724
1693.359375	-67.298065
1694.335938	-67.258347
1695.312500	-67.295273
1696.289062	-68.563416
1697.265625	-66.884735
1698.242188	-66.519485
1699.218750	-65.570480
1700.195312	-68.564224
1701.171875	-67.602989
1702.148438	-68.766838
1703.125000	-67.660179
1704.101562	-67.957771
1705.078125	-67.725555
1706.054688	-66.852791
1707.031250	-67.314758
1708.007812	-66.402252
1708.984375	-67.830528
1709.960938	-67.652641
1710.937500	-66.976570
1711.914062	-67.009872
1712.890625	-67.964684
1713.867188	-67.692734
1714.843750	-67.352379
1715.820312	-67.147942
1716.796875	-67.845352
1717.773438	-67.304642
1718.750000	-68.001640
1719.726562	-67.429268
1720.703125	-68.553383
1721.679688	-67.740158
1722.656250	-68.269585
1723.632812	-67.201736
1724.609375	-68.460472
1725.585938	-67.568680
1726.562500	-68.815704
1727.539062	-66.819229
1728.515625	-67.966438
1729.492188	-67.569153
1730.468750	-67.655190
1731.445312	-68.019699
1732.421875	-67.132988
1733.398438	-67.890976
1734.375000	-68.689827
1735.351562	-68.146339
1736.328125	-66.569572
1737.304688	-66.257118
1738.281250	-67.557610
1739.257812	-68.858551
1740.234375	-66.848000
1741.210938	-68.069885
1742.187500	-68.042107
1743.164062	-66.989449
1744.140625	-67.273270
1745.117188	-67.250351
1746.093750	-67.320763
1747.070312	-67.624222
1748.046875	-67.044235
1749.023438	-67.410660
1750.000000	-67.146996
1750.976562	-66.806709
1751.953125	-66.209610
1752.929688	-65.366875
1753.906250	-68.097694
1754.882812	-66.586418
1755.859375	-66.313911
1756.835938	-67.956779
1757.812500	-67.035431
1758.789062	-67.531403
1759.765625	-66.628555
1760.742188	-67.444656
1761.718750	-66.840919
1762.695312	-65.977264
1763.671875	-67.855415
1764.648438	-66.195465
1765.625000	-66.624710
1766.601562	-66.257240
1767.578125	-66.283012
1768.554688	-65.706253
1769.531250	-66.467751
1770.507812	-65.949745
1771.484375	-67.142792
1772.460938	-66.175766
1773.437500	-65.430786
1774.414062	-66.420273
1775.390625	-66.419975
1776.367188	-66.772018
1777.343750	-66.263695
1778.320312	-65.812675
1779.296875	-65.180214
1780.273438	-66.448830
1781.250000	-65.930489
1782.226562	-65.666168
1783.203125	-64.647972
1784.179688	-64.755936
1785.156250	-64.213654
1786.132812	-64.978874
1787.109375	-65.499992
1788.085938	-64.975906
1789.062500	-64.100052
1790.039062	-64.327492
1791.015625	-63.427166
1791.992188	-65.037941
1792.968750	-65.136536
1793.945312	-63.972958
1794.921875	-64.153404
1795.898438	-62.925575
1796.875000	-62.938599
1797.851562	-64.791420
1798.828125	-63.198357
1799.804688	-62.959679
1800.781250	-61.533169
1801.757812	-63.719276
1802.734375	-63.291870
1803.710938	-62.655205
1804.687500	-63.553062
1805.664062	-63.953793
1806.640625	-62.671822
1807.617188	-62.456440
1808.593750	-61.908607
1809.570312	-62.749252
1810.546875	-64.262291
1811.523438	-63.214031
1812.500000	-62.030315
1813.476562	-61.116558
1814.453125	-60.569347
1815.429688	-60.740349
1816.406250	-61.494164
1817.382812	-60.855736
1818.359375	-61.477360
1819.335938	-60.975689
1820.312500	-60.102867
1821.289062	-60.926517
1822.265625	-59.453438
1823.242188	-60.493549
1824.218750	-60.215054
1825.195312	-59.761292
1826.171875	-59.167835
1827.148438	-59.668980
1828.125000	-58.628132
1829.101562	-58.513641
1830.078125	-58.320621
1831.054688	-57.744930
1832.031250	-57.970982
1833.007812	-58.089924
1833.984375	-57.657913
1834.960938	-56.861427
1835.937500	-57.233517
1836.914062	-57.062298
1837.890625	-57.998707
1838.867188	-57.752197
1839.843750	-56.316208
1840.820312	-56.569637
1841.796875	-54.896297
1842.773438	-55.895126
1843.750000	-54.940132
1844.726562	-55.803085
1845.703125	-54.144283
1846.679688	-54.407589
1847.656250	-53.991112
1848.632812	-55.363392
1849.609375	-55.154488
1850.585938	-53.813881
1851.562500	-54.077000
1852.539062	-53.947948
1853.515625	-54.637608
1854.492188	-52.501343
1855.468750	-51.945271
1856.445312	-52.220055
1857.421875	-51.909111
1858.398438	-50.859161
1859.375000	-50.965733
1860.351562	-52.638477
1861.328125	-52.711433
1862.304688	-52.616501
1863.281250	-51.627186
1864.257812	-52.624577
1865.234375	-52.420547
1866.210938	-51.793854
1867.187500	-53.397411
1868.164062	-54.257961
1869.140625	-54.199265
1870.117188	-53.404446
1871.093750	-54.336395
1872.070312	-54.243629
1873.046875	-53.805817
1874.023438	-53.766434
1875.000000	-54.142784
1875.976562	-54.312531
1876.953125	-55.564472
1877.929688	-55.225315
1878.906250	-55.022846
1879.882812	-56.166477
1880.859375	-55.939281
1881.835938	-55.899349
1882.812500	-56.440300
1883.789062	-57.985588
1884.765625	-58.728493
1885.742188	-56.651672
1886.718750	-56.354893
1887.695312	-57.754749
1888.671875	-57.054424
1889.648438	-56.740498
1890.625000	-57.023212
1891.601562	-57.368382
1892.578125	-57.523621
1893.554688	-57.908287
1894.531250	-58.386467
1895.507812	-59.150551
1896.484375	-58.862877
1897.460938	-58.976234
1898.437500	-59.794033
1899.414062	-59.018894
1900.390625	-60.022671
1901.367188	-62.109440
1902.343750	-59.924366
1903.320312	-61.159340
1904.296875	-59.988121
1905.273438	-59.150105
1906.250000	-59.706898
1907.226562	-61.989162
1908.203125	-59.381714
1909.179688	-60.358719
1910.156250	-60.100330
1911.132812	-60.435898
1912.109375	-61.409660
1913.085938	-60.496574
1914.062500	-61.620121
1915.039062	-61.312992
1916.015625	-62.057224
1916.992188	-61.483727
1917.968750	-62.171375
1918.945312	-63.209572
1919.921875	-61.300232
1920.898438	-61.462013
1921.875000	-61.953590
1922.851562	-63.144062
1923.828125	-61.823582
1924.804688	-62.932598
1925.781250	-63.505489
1926.757812	-63.214039
1927.734375	-61.960342
1928.710938	-62.626507
1929.687500	-63.616837
1930.664062	-63.955410
1931.640625	-63.430992
1932.617188	-64.814720
1933.593750	-64.586662
1934.570312	-62.861137
1935.546875	-63.538937
1936.523438	-64.024071
1937.500000	-64.461304
1938.476562	-63.929424
1939.453125	-63.698364
1940.429688	-64.064484
1941.406250	-64.073212
1942.382812	-64.185112
1943.359375	-65.275650
1944.335938	-63.340984
1945.312500	-64.096031
1946.289062	-63.935440
1947.265625	-64.449104
1948.242188	-64.018166
1949.218750	-63.562469
1950.195312	-64.968300
1951.171875	-65.362854
1952.148438	-65.459045
1953.125000	-65.120369
1954.101562	-64.381760
1955.078125	-64.951599
1956.054688	-64.494507
1957.031250	-64.307312
1958.007812	-65.671318
1958.984375	-64.161774
1959.960938	-64.724075
1960.937500	-64.620621
1961.914062	-65.664078
1962.890625	-65.279991
1963.867188	-64.901421
1964.843750	-64.604927
1965.820312	-64.335640
1966.796875	-65.182686
1967.773438	-65.386169
1968.750000	-64.550362
1969.726562	-64.628571
1970.703125	-64.766762
1971.679688	-65.516190
1972.656250	-65.067795
1973.632812	-64.579018
1974.609375	-64.841125
1975.585938	-64.597595
1976.562500	-65.392769
1977.539062	-63.676952
1978.515625	-65.515755
1979.492188	-65.744873
1980.468750	-65.067360
1981.445312	-64.613243
1982.421875	-65.113197
1983.398438	-65.878853
1984.375000	-66.003281
1985.351562	-65.795525
1986.328125	-64.814056
1987.304688	-64.746193
1988.281250	-65.592033
1989.257812	-65.335403
1990.234375	-65.041130
1991.210938	-65.518066
1992.187500	-65.260490
1993.164062	-66.601326
1994.140625	-65.622520
1995.117188	-64.624832
1996.093750	-64.585999
1997.070312	-66.360390
1998.046875	-64.565788
1999.023438	-65.772224
2000.000000	-66.728233
2000.976562	-65.090492
2001.953125	-64.383278
2002.929688	-64.033226
2003.906250	-65.218178
2004.882812	-64.388634
2005.859375	-64.458130
2006.835938	-65.331146
2007.812500	-65.547623
2008.789062	-65.083305
2009.765625	-65.438683
2010.742188	-64.536171
2011.718750	-64.736076
2012.695312	-64.825455
2013.671875	-65.199783
2014.648438	-64.146614
2015.625000	-65.296463
2016.601562	-64.544769
2017.578125	-64.580696
2018.554688	-64.922516
2019.531250	-65.056877
2020.507812	-63.912220
2021.484375	-63.884861
2022.460938	-64.906464
2023.437500	-63.820152
2024.414062	-63.770184
2025.390625	-63.778675
2026.367188	-64.080276
2027.343750	-64.290787
2028.320312	-64.474037
2029.296875	-63.891041
2030.273438	-64.109932
2031.250000	-64.438873
2032.226562	-63.922329
2033.203125	-63.632721
2034.179688	-63.987831
2035.156250	-63.802231
2036.132812	-62.201366
2037.109375	-63.720310
2038.085938	-62.824783
2039.062500	-64.818504
2040.039062	-63.598038
2041.015625	-62.257820
2041.992188	-63.609921
2042.968750	-63.584618
2043.945312	-62.717003
2044.921875	-62.969639
2045.898438	-62.191536
2046.875000	-63.267166
2047.851562	-63.017223
2048.828125	-62.395828
2049.804688	-63.310020
2050.781250	-62.814659
2051.757812	-62.415268
2052.734375	-61.576218
2053.710938	-61.628227
2054.687500	-62.282375
2055.664062	-62.900394
2056.640625	-60.123901
2057.617188	-60.628212
2058.593750	-61.230656
2059.570312	-62.338676
2060.546875	-61.713711
2061.523438	-60.978924
2062.500000	-59.711777
2063.476562	-61.552784
2064.453125	-61.988506
2065.429688	-61.548950
2066.406250	-62.247154
2067.382812	-60.598522
2068.359375	-60.281685
2069.335938	-60.659428
2070.312500	-60.698597
2071.289062	-60.581776
2072.265625	-59.872402
2073.242188	-58.600513
2074.218750	-59.746311
2075.195312	-59.061974
2076.171875	-58.959957
2077.148438	-61.155643
2078.125000	-59.080929
2079.101562	-59.872246
2080.078125	-58.685116
2081.054688	-60.290966
2082.031250	-57.712776
2083.007812	-58.457348
2083.984375	-58.237720
2084.960938	-58.517708
2085.937500	-58.509205
2086.914062	-58.222660
2087.890625	-57.260616
2088.867188	-56.581112
2089.843750	-57.629795
2090.820312	-55.923317
2091.796875	-55.618332
2092.773438	-56.037178
2093.750000	-56.930984
2094.726562	-57.274868
2095.703125	-56.472515
2096.679688	-54.885532
2097.656250	-55.331654
2098.632812	-54.721386
2099.609375	-54.566895
2100.585938	-55.158146
2101.562500	-54.368824
2102.539062	-53.488770
2103.515625	-53.679867
2104.492188	-53.725281
2105.468750	-53.614128
2106.445312	-53.586849
2107.421875	-52.996021
2108.398438	-52.942863
2109.375000	-52.761154
2110.351562	-52.152218
2111.328125	-52.107342
2112.304688	-51.182339
2113.281250	-51.904896
2114.257812	-51.455547
2115.234375	-50.801197
2116.210938	-50.255520
2117.187500	-52.540211
2118.164062	-51.377201
2119.140625	-49.300385
2120.117188	-50.005207
2121.093750	-49.489880
2122.070312	-50.175217
2123.046875	-49.773247
2124.023438	-48.675053
2125.000000	-49.947014
2125.976562	-49.435425
2126.953125	-50.158546
2127.929688	-50.447247
2128.906250	-48.936623
2129.882812	-51.087299
2130.859375	-50.991032
2131.835938	-50.383293
2132.812500	-49.970238
2133.789062	-52.817173
2134.765625	-52.664719
2135.742188	-49.188194
2136.718750	-51.457100
2137.695312	-51.598568
2138.671875	-52.591282
2139.648438	-53.792202
2140.625000	-52.500225
2141.601562	-53.075413
2142.578125	-52.914478
2143.554688	-53.614723
2144.531250	-54.451260
2145.507812	-54.222542
2146.484375	-52.681835
2147.460938	-53.011360
2148.437500	-53.402592
2149.414062	-55.137367
2150.390625	-53.691750
2151.367188	-54.872562
2152.343750	-55.651463
2153.320312	-55.015530
2154.296875	-56.536602
2155.273438	-54.881996
2156.250000	-55.748550
2157.226562	-56.397938
2158.203125	-56.432259
2159.179688	-56.617420
2160.156250	-57.174110
2161.132812	-57.298683
2162.109375	-55.652828
2163.085938	-57.438934
2164.062500	-56.727261
2165.039062	-56.994286
2166.015625	-57.825905
2166.992188	-56.968681
2167.968750	-57.380508
2168.945312	-57.567245
2169.921875	-57.484367
2170.898438	-58.043633
2171.875000	-56.522236
2172.851562	-58.224960
2173.828125	-57.304932
2174.804688	-58.576485
2175.781250	-59.820942
2176.757812	-59.991978
2177.734375	-58.604279
2178.710938	-59.963726
2179.687500	-58.680088
2180.664062	-61.029686
2181.640625	-60.415703
2182.617188	-59.700928
2183.593750	-58.518543
2184.570312	-59.107273
2185.546875	-60.275169
2186.523438	-60.746075
2187.500000	-60.242298
2188.476562	-59.323387
2189.453125	-59.195583
2190.429688	-60.664135
2191.406250	-61.513344
2192.382812	-60.995724
2193.359375	-59.832687
2194.335938	-60.845818
2195.312500	-62.530334
2196.289062	-60.533058
2197.265625	-60.142284
2198.242188	-60.517143
2199.218750	-59.562359
2200.195312	-60.684643
2201.171875	-60.317078
2202.148438	-61.843086
2203.125000	-61.402344
2204.101562	-60.705021
2205.078125	-61.595158
2206.054688	-61.408794
2207.031250	-62.808052
2208.007812	-62.917702
2208.984375	-60.544258
2209.960938	-60.895599
2210.937500	-61.191334
2211.914062	-61.672638
2212.890625	-61.149200
2213.867188	-60.492214
2214.843750	-62.219418
2215.820312	-61.532913
2216.796875	-61.234142
2217.773438	-61.326088
2218.750000	-60.738659
2219.726562	-61.081703
2220.703125	-61.744816
2221.679688	-61.692635
2222.656250	-60.877747
2223.632812	-61.250874
2224.609375	-62.316013
2225.585938	-62.964439
2226.562500	-61.005436
2227.539062	-61.651966
2228.515625	-61.532906
2229.492188	-61.723114
2230.468750	-61.913582
2231.445312	-62.990788
2232.421875	-62.689957
2233.398438	-60.772892
2234.375000	-62.077065
2235.351562	-62.874485
2236.328125	-63.104172
2237.304688	-62.099911
2238.281250	-62.135574
2239.257812	-61.751125
2240.234375	-62.250259
2241.210938	-62.486908
2242.187500	-63.434841
2243.164062	-62.165146
2244.140625	-62.687046
2245.117188	-62.438610
2246.093750	-62.520874
2247.070312	-61.677097
2248.046875	-63.887074
2249.023438	-63.084072
2250.000000	-61.795822
2250.976562	-61.098560
2251.953125	-62.737999
2252.929688	-62.446491
2253.906250	-61.535019
2254.882812	-64.252930
2255.859375	-62.025517
2256.835938	-62.036346
2257.812500	-62.360680
2258.789062	-63.003258
2259.765625	-62.610386
2260.742188	-63.276257
2261.718750	-62.830109
2262.695312	-62.769279
2263.671875	-62.299248
2264.648438	-61.818478
2265.625000	-61.811840
2266.601562	-62.323635
2267.578125	-61.124443
2268.554688	-62.121075
2269.531250	-61.888603
2270.507812	-61.485394
2271.484375	-62.714981
2272.460938	-62.084389
2273.437500	-62.102837
2274.414062	-62.304764
2275.390625	-62.441227
2276.367188	-62.351177
2277.343750	-62.618397
2278.320312	-61.177986
2279.296875	-62.126984
2280.273438	-61.863461
2281.250000	-62.158817
2282.226562	-63.254261
2283.203125	-62.057957
2284.179688	-61.678562
2285.156250	-63.547409
2286.132812	-61.940422
2287.109375	-62.382004
2288.085938	-61.262695
2289.062500	-60.960663
2290.039062	-61.433395
2291.015625	-62.819843
2291.992188	-60.684380
2292.968750	-60.189087
2293.945312	-61.270409
2294.921875	-61.788826
2295.898438	-61.494240
2296.875000	-61.870773
2297.851562	-60.211185
2298.828125	-62.812622
2299.804688	-60.847988
2300.781250	-60.776966
2301.757812	-60.472168
2302.734375	-60.813995
2303.710938	-60.243633
2304.687500	-59.679787
2305.664062	-61.268707
2306.640625	-60.601807
2307.617188	-60.781952
2308.593750	-60.166111
2309.570312	-60.078468
2310.546875	-58.840084
2311.523438	-60.323223
2312.500000	-59.550472
2313.476562	-60.135277
2314.453125	-59.606312
2315.429688	-59.856071
2316.406250	-59.659115
2317.382812	-60.606537
2318.359375	-60.463001
2319.335938	-59.567795
2320.312500	-59.697643
2321.289062	-59.462662
2322.265625	-58.100380
2323.242188	-59.186398
2324.218750	-58.632034
2325.195312	-59.249718
2326.171875	-58.746292
2327.148438	-58.106369
2328.125000	-57.604969
2329.101562	-58.249088
2330.078125	-57.234768
2331.054688	-57.120842
2332.031250	-57.248703
2333.007812	-58.681305
2333.984375	-58.503841
2334.960938	-58.082634
2335.937500	-57.828995
2336.914062	-57.409626
2337.890625	-57.935265
2338.867188	-57.334904
2339.843750	-56.205536
2340.820312	-57.048260
2341.796875	-56.836899
2342.773438	-56.829353
2343.750000	-57.451317
2344.726562	-56.315342
2345.703125	-55.865635
2346.679688	-54.110352
2347.656250	-55.909790
2348.632812	-57.734497
2349.609375	-55.679337
2350.585938	-56.095165
2351.562500	-55.340389
2352.539062	-54.305977
2353.515625	-55.550125
2354.492188	-54.399338
2355.468750	-54.597919
2356.445312	-54.147278
2357.421875	-54.033188
2358.398438	-54.761635
2359.375000	-54.024929
2360.351562	-54.442055
2361.328125	-53.682095
2362.304688	-53.779835
2363.281250	-53.588657
2364.257812	-52.784809
2365.234375	-51.994968
2366.210938	-52.355022
2367.187500	-52.183254
2368.164062	-51.690758
2369.140625	-52.220016
2370.117188	-51.736107
2371.093750	-50.541634
2372.070312	-51.412560
2373.046875	-52.406368
2374.023438	-50.262138
2375.000000	-50.414200
2375.976562	-49.524982
2376.953125	-50.792942
2377.929688	-50.276993
2378.906250	-49.361160
2379.882812	-51.012165
2380.859375	-49.236958
2381.835938	-49.789070
2382.812500	-48.446598
2383.789062	-49.149452
2384.765625	-49.011703
2385.742188	-48.613739
2386.718750	-47.951843
2387.695312	-48.583950
2388.671875	-48.739998
2389.648438	-48.049854
2390.625000	-49.159718
2391.601562	-46.962929
2392.578125	-47.302223
2393.554688	-47.237675
2394.531250	-46.889454
2395.507812	-48.255543
2396.484375	-48.699463
2397.460938	-47.384552
2398.437500	-48.101295
2399.414062	-49.798141
2400.390625	-48.586151
2401.367188	-48.565441
2402.343750	-48.617054
2403.320312	-48.989613
2404.296875	-48.142357
2405.273438	-49.183582
2406.250000	-51.745560
2407.226562	-49.186077
2408.203125	-51.702812
2409.179688	-51.539680
2410.156250	-51.240105
2411.132812	-50.970329
2412.109375	-50.375679
2413.085938	-51.429173
2414.062500	-50.711166
2415.039062	-51.571568
2416.015625	-50.983620
2416.992188	-51.748718
2417.968750	-51.558254
2418.945312	-51.162067
2419.921875	-52.994274
2420.898438	-52.337234
2421.875000	-53.372528
2422.851562	-52.957699
2423.828125	-53.545261
2424.804688	-53.954735
2425.781250	-53.746517
2426.757812	-54.826782
2427.734375	-53.497929
2428.710938	-55.401035
2429.687500	-53.609077
2430.664062	-54.587654
2431.640625	-55.000153
2432.617188	-54.680313
2433.593750	-54.928253
2434.570312	-55.278099
2435.546875	-56.684361
2436.523438	-56.279762
2437.500000	-56.165710
2438.476562	-55.145447
2439.453125	-55.701008
2440.429688	-57.917839
2441.406250	-56.338642
2442.382812	-57.220741
2443.359375	-56.817719
2444.335938	-56.552670
2445.312500	-56.769421
2446.289062	-56.999760
2447.265625	-56.685627
2448.242188	-57.285683
2449.218750	-57.261612
2450.195312	-56.301006
2451.171875	-56.083076
2452.148438	-56.700356
2453.125000	-57.263222
2454.101562	-57.244701
2455.078125	-56.993160
2456.054688	-58.944622
2457.031250	-56.878311
2458.007812	-56.789516
2458.984375	-58.672318
2459.960938	-58.051609
2460.937500	-58.524689
2461.914062	-57.697926
2462.890625	-57.999023
2463.867188	-56.974243
2464.843750	-56.422073
2465.820312	-58.843075
2466.796875	-57.614460
2467.773438	-59.101482
2468.750000	-59.154888
2469.726562	-59.632504
2470.703125	-59.778278
2471.679688	-59.141239
2472.656250	-59.304306
2473.632812	-57.459862
2474.609375	-59.264614
2475.585938	-59.095299
2476.562500	-58.702343
2477.539062	-60.622772
2478.515625	-59.543049
2479.492188	-58.889874
2480.468750	-58.522350
2481.445312	-59.650005
2482.421875	-59.434196
2483.398438	-59.083439
2484.375000	-59.907173
2485.351562	-59.974987
2486.328125	-58.667709
2487.304688	-58.055641
2488.281250	-59.818302
2489.257812	-59.328575
2490.234375	-58.441280
2491.210938	-60.162975
2492.187500	-60.180374
2493.164062	-59.230202
2494.140625	-58.667370
2495.117188	-59.992844
2496.093750	-59.943150
2497.070312	-60.003517
2498.046875	-59.927231
2499.023438	-59.295887
2500.000000	-59.833782
2500.976562	-59.226437
2501.953125	-59.876980
2502.929688	-59.538960
2503.906250	-60.646324
2504.882812	-59.357491
2505.859375	-60.266705
2506.835938	-60.991093
2507.812500	-59.376572
2508.789062	-61.244450
2509.765625	-60.543053
2510.742188	-60.098862
2511.718750	-59.613041
2512.695312	-59.922985
2513.671875	-60.553738
2514.648438	-59.897018
2515.625000	-60.992737
2516.601562	-59.598366
2517.578125	-59.385532
2518.554688	-60.121708
2519.531250	-60.418545
2520.507812	-59.985046
2521.484375	-60.384159
2522.460938	-59.916294
2523.437500	-60.459576
2524.414062	-60.195797
2525.390625	-59.951370
2526.367188	-59.564335
2527.343750	-59.709301
2528.320312	-59.309769
2529.296875	-59.577919
2530.273438	-59.325531
2531.250000	-59.277565
2532.226562	-59.295467
2533.203125	-60.203224
2534.179688	-60.860432
2535.156250	-61.305824
2536.132812	-60.780403
2537.109375	-60.295185
2538.085938	-59.254719
2539.062500	-59.420536
2540.039062	-60.734203
2541.015625	-58.856514
2541.992188	-59.980854
2542.968750	-59.148525
2543.945312	-58.997410
2544.921875	-59.810955
2545.898438	-60.387802
2546.875000	-59.080940
2547.851562	-58.761444
2548.828125	-59.390297
2549.804688	-58.659546
2550.781250	-58.185295
2551.757812	-58.794762
2552.734375	-58.558002
2553.710938	-57.365528
2554.687500	-59.357662
2555.664062	-60.761711
2556.640625	-59.550636
2557.617188	-58.645504
2558.593750	-58.104797
2559.570312	-58.678009
2560.546875	-58.409264
2561.523438	-59.419205
2562.500000	-59.715496
2563.476562	-59.714478
2564.453125	-57.605927
2565.429688	-58.334236
2566.406250	-59.720501
2567.382812	-59.140553
2568.359375	-58.132500
2569.335938	-57.595631
2570.312500	-58.313843
2571.289062	-57.272186
2572.265625	-58.287643
2573.242188	-58.783722
2574.218750	-57.671478
2575.195312	-58.250038
2576.171875	-57.170094
2577.148438	-57.180424
2578.125000	-56.029766
2579.101562	-56.680359
2580.078125	-57.580643
2581.054688	-57.322411
2582.031250	-56.997421
2583.007812	-58.017639
2583.984375	-57.372158
2584.960938	-57.159943
2585.937500	-56.926334
2586.914062	-56.585651
2587.890625	-56.408730
2588.867188	-56.353031
2589.843750	-56.048397
2590.820312	-56.823898
2591.796875	-55.074608
2592.773438	-56.627399
2593.750000	-54.918758
2594.726562	-57.422699
2595.703125	-56.939560
2596.679688	-55.504906
2597.656250	-54.245789
2598.632812	-53.986626
2599.609375	-55.371105
2600.585938	-55.349613
2601.562500	-56.036659
2602.539062	-55.357761
2603.515625	-54.618168
2604.492188	-55.982079
2605.468750	-54.963894
2606.445312	-53.215675
2607.421875	-55.125484
2608.398438	-52.806797
2609.375000	-53.450806
2610.351562	-53.192688
2611.328125	-54.500866
2612.304688	-54.558170
2613.281250	-52.762413
2614.257812	-52.927929
2615.234375	-52.686470
2616.210938	-52.951328
2617.187500	-53.478046
2618.164062	-52.097145
2619.140625	-51.524914
2620.117188	-52.306877
2621.093750	-51.770351
2622.070312	-52.404373
2623.046875	-52.390587
2624.023438	-51.723606
2625.000000	-51.984100
2625.976562	-51.132996
2626.953125	-51.819759
2627.929688	-50.291012
2628.906250	-50.102928
2629.882812	-50.077732
2630.859375	-48.782406
2631.835938	-49.244850
2632.812500	-50.023167
2633.789062	-50.278172
2634.765625	-49.804585
2635.742188	-49.590446
2636.718750	-49.971645
2637.695312	-49.745895
2638.671875	-49.467144
2639.648438	-47.569775
2640.625000	-48.218643
2641.601562	-47.671246
2642.578125	-47.056713
2643.554688	-46.658176
2644.531250	-46.069885
2645.507812	-46.166561
2646.484375	-46.509411
2647.460938	-45.403133
2648.437500	-46.345837
2649.414062	-45.770218
2650.390625	-45.132862
2651.367188	-45.716190
2652.343750	-44.708969
2653.320312	-46.938667
2654.296875	-46.778053
2655.273438	-44.487122
2656.250000	-44.017662
2657.226562	-45.897324
2658.203125	-44.727798
2659.179688	-45.134922
2660.156250	-45.964333
2661.132812	-45.736244
2662.109375	-45.804848
2663.085938	-46.025829
2664.062500	-48.104740
2665.039062	-46.470581
2666.015625	-47.052166
2666.992188	-46.462444
2667.968750	-45.700871
2668.945312	-46.993931
2669.921875	-47.013454
2670.898438	-46.758160
2671.875000	-46.831863
2672.851562	-47.173027
2673.828125	-48.588707
2674.804688	-47.658737
2675.781250	-48.620396
2676.757812	-49.401371
2677.734375	-49.817608
2678.710938	-48.734917
2679.687500	-48.967247
2680.664062	-49.739082
2681.640625	-49.678074
2682.617188	-49.953899
2683.593750	-50.514374
2684.570312	-50.785618
2685.546875	-51.564606
2686.523438	-51.540768
2687.500000	-50.003605
2688.476562	-51.359322
2689.453125	-50.673710
2690.429688	-52.077248
2691.406250	-51.809551
2692.382812	-51.518829
2693.359375	-51.498653
2694.335938	-52.295578
2695.312500	-52.315758
2696.289062	-52.355267
2697.265625	-51.707958
2698.242188	-52.097355
2699.218750	-52.154385
2700.195312	-52.614517
2701.171875	-52.833561
2702.148438	-53.459064
2703.125000	-52.044617
2704.101562	-53.730804
2705.078125	-53.622314
2706.054688	-52.186005
2707.031250	-54.309872
2708.007812	-52.992203
2708.984375	-52.427948
2709.960938	-53.726463
2710.937500	-53.141598
2711.914062	-54.599033
2712.890625	-54.681690
2713.867188	-54.735840
2714.843750	-54.705112
2715.820312	-54.414448
2716.796875	-54.106327
2717.773438	-54.871387
2718.750000	-54.612690
2719.726562	-55.366871
2720.703125	-54.575249
2721.679688	-55.512695
2722.656250	-54.214489
2723.632812	-56.678505
2724.609375	-54.675442
2725.585938	-56.107346
2726.562500	-54.410191
2727.539062	-54.471264
2728.515625	-55.724815
2729.492188	-55.774696
2730.468750	-55.346317
2731.445312	-56.232418
2732.421875	-57.151463
2733.398438	-56.843067
2734.375000	-55.365200
2735.351562	-56.101952
2736.328125	-56.081406
2737.304688	-55.754501
2738.281250	-55.357121
2739.257812	-56.446526
2740.234375	-56.830746
2741.210938	-56.827885
2742.187500	-57.515366
2743.164062	-56.988964
2744.140625	-57.055511
2745.117188	-55.011181
2746.093750	-56.080830
2747.070312	-56.604286
2748.046875	-57.095284
2749.023438	-57.253151
2750.000000	-56.336796
2750.976562	-57.114220
2751.953125	-56.974247
2752.929688	-56.007519
2753.906250	-57.296829
2754.882812	-55.744080
2755.859375	-57.445827
2756.835938	-56.595894
2757.812500	-57.081680
2758.789062	-56.284328
2759.765625	-56.231716
2760.742188	-56.541653
2761.718750	-56.357517
2762.695312	-56.092865
2763.671875	-55.870434
2764.648438	-57.814594
2765.625000	-57.057159
2766.601562	-57.223541
2767.578125	-55.818714
2768.554688	-57.305569
2769.531250	-57.010578
2770.507812	-56.700302
2771.484375	-56.469681
2772.460938	-58.055134
2773.437500	-57.203484
2774.414062	-56.817425
2775.390625	-57.855370
2776.367188	-57.386078
2777.343750	-57.230202
2778.320312	-57.596405
2779.296875	-57.890125
2780.273438	-57.680946
2781.250000	-57.474480
2782.226562	-57.663231
2783.203125	-58.382870
2784.179688	-58.160740
2785.156250	-57.639702
2786.132812	-57.226818
2787.109375	-58.286606
2788.085938	-57.574966
2789.062500	-58.819458
2790.039062	-58.014698
2791.015625	-57.705772
2791.992188	-57.802269
2792.968750	-56.932812
2793.945312	-57.739300
2794.921875	-57.361652
2795.898438	-56.580784
2796.875000	-58.086670
2797.851562	-57.501686
2798.828125	-58.016846
2799.804688	-57.365208
2800.781250	-57.691380
2801.757812	-57.643932
2802.734375	-57.140064
2803.710938	-57.743778
2804.687500	-58.294071
2805.664062	-56.788620
2806.640625	-56.251713
2807.617188	-57.161793
2808.593750	-56.943687
2809.570312	-57.169662
2810.546875	-58.021152
2811.523438	-57.152161
2812.500000	-57.508026
2813.476562	-56.799030
2814.453125	-57.349014
2815.429688	-56.823273
2816.406250	-56.720963
2817.382812	-55.876301
2818.359375	-56.480618
2819.335938	-56.128029
2820.312500	-55.127644
2821.289062	-56.740173
2822.265625	-55.832409
2823.242188	-55.389915
2824.218750	-55.918449
2825.195312	-56.447533
2826.171875	-55.920155
2827.148438	-55.987152
2828.125000	-55.965584
2829.101562	-56.350136
2830.078125	-56.173779
2831.054688	-54.537594
2832.031250	-55.341167
2833.007812	-55.656654
2833.984375	-55.930634
2834.960938	-55.891438
2835.937500	-54.800114
2836.914062	-55.262280
2837.890625	-56.376892
2838.867188	-55.462467
2839.843750	-54.995163
2840.820312	-55.915756
2841.796875	-54.386189
2842.773438	-55.079147
2843.750000	-55.036686
2844.726562	-54.264824
2845.703125	-54.281704
2846.679688	-54.373741
2847.656250	-54.786160
2848.632812	-54.610546
2849.609375	-54.274414
2850.585938	-53.970463
2851.562500	-55.365643
2852.539062	-54.008797
2853.515625	-53.637260
2854.492188	-54.605270
2855.468750	-53.235573
2856.445312	-53.345539
2857.421875	-54.278313
2858.398438	-53.151886
2859.375000	-54.944332
2860.351562	-54.116966
2861.328125	-53.141415
2862.304688	-53.707157
2863.281250	-52.529659
2864.257812	-52.029377
2865.234375	-52.379539
2866.210938	-53.150848
2867.187500	-52.965137
2868.164062	-51.366020
2869.140625	-51.285767
2870.117188	-51.897522
2871.093750	-51.859653
2872.070312	-52.160984
2873.046875	-51.222767
2874.023438	-51.305870
2875.000000	-51.770607
2875.976562	-51.673187
2876.953125	-51.843903
2877.929688	-51.146469
2878.906250	-50.258568
2879.882812	-51.484459
2880.859375	-50.314579
2881.835938	-49.942043
2882.812500	-49.419865
2883.789062	-50.342758
2884.765625	-49.407082
2885.742188	-50.202953
2886.718750	-49.657040
2887.695312	-48.555878
2888.671875	-48.775436
2889.648438	-49.053246
2890.625000	-49.230469
2891.601562	-49.291519
2892.578125	-49.766876
2893.554688	-48.277569
2894.531250	-48.134228
2895.507812	-48.773891
2896.484375	-47.785656
2897.460938	-47.879353
2898.437500	-47.051891
2899.414062	-46.003662
2900.390625	-45.995121
2901.367188	-46.417168
2902.343750	-46.615231
2903.320312	-46.295422
2904.296875	-47.068039
2905.273438	-46.666378
2906.250000	-46.689461
2907.226562	-44.962463
2908.203125	-44.506332
2909.179688	-46.633808
2910.156250	-46.584293
2911.132812	-45.454193
2912.109375	-44.867893
2913.085938	-45.245678
2914.062500	-45.177711
2915.039062	-45.625450
2916.015625	-45.269215
2916.992188	-44.977516
2917.968750	-44.004230
2918.945312	-44.125507
2919.921875	-43.802536
2920.898438	-43.598930
2921.875000	-43.412079
2922.851562	-45.402184
2923.828125	-44.345829
2924.804688	-43.602554
2925.781250	-44.231575
2926.757812	-44.418625
2927.734375	-44.316292
2928.710938	-45.001766
2929.687500	-45.129280
2930.664062	-44.425457
2931.640625	-46.401123
2932.617188	-45.954857
2933.593750	-45.725811
2934.570312	-45.222992
2935.546875	-45.935219
2936.523438	-45.163906
2937.500000	-44.365585
2938.476562	-46.485100
2939.453125	-44.833565
2940.429688	-46.148830
2941.406250	-46.573963
2942.382812	-45.916008
2943.359375	-46.010353
2944.335938	-46.108337
2945.312500	-46.760803
2946.289062	-46.888691
2947.265625	-47.640366
2948.242188	-47.942341
2949.218750	-47.385246
2950.195312	-48.557941
2951.171875	-47.695141
2952.148438	-48.149521
2953.125000	-48.296902
2954.101562	-47.470905
2955.078125	-48.667583
2956.054688	-48.539993
2957.031250	-49.412716
2958.007812	-49.450054
2958.984375	-49.617420
2959.960938	-50.134155
2960.937500	-49.077801
2961.914062	-49.455601
2962.890625	-49.355644
2963.867188	-49.586792
2964.843750	-49.756104
2965.820312	-50.575951
2966.796875	-50.372490
2967.773438	-50.724606
2968.750000	-50.810272
2969.726562	-51.494114
2970.703125	-52.966942
2971.679688	-51.344982
2972.656250	-51.840755
2973.632812	-52.150909
2974.609375	-52.790047
2975.585938	-50.741417
2976.562500	-50.953754
2977.539062	-51.538933
2978.515625	-52.441654
2979.492188	-52.079887
2980.468750	-53.184830
2981.445312	-51.677689
2982.421875	-52.349339
2983.398438	-52.136719
2984.375000	-53.423969
2985.351562	-53.953697
2986.328125	-52.733799
2987.304688	-52.999786
2988.281250	-52.809811
2989.257812	-53.678978
2990.234375	-54.577702
2991.210938	-54.055771
2992.187500	-52.575619
2993.164062	-52.876251
2994.140625	-53.057453
2995.117188	-53.942795
2996.093750	-55.448593
2997.070312	-53.581596
2998.046875	-54.704216
2999.023438	-54.520489
3000.000000	-53.671955
3000.976562	-53.502914
3001.953125	-53.858654
3002.929688	-55.433472
3003.906250	-54.062916
3004.882812	-53.877037
3005.859375	-54.499577
3006.835938	-52.946514
3007.812500	-54.473156
3008.789062	-54.137486
3009.765625	-53.904373
3010.742188	-53.740360
3011.718750	-54.108376
3012.695312	-55.374088
3013.671875	-54.605450
3014.648438	-54.414913
3015.625000	-55.711437
3016.601562	-55.205345
3017.578125	-54.612274
3018.554688	-54.180233
3019.531250	-54.923210
3020.507812	-56.099735
3021.484375	-55.596741
3022.460938	-55.758690
3023.437500	-55.823807
3024.414062	-54.796143
3025.390625	-55.856380
3026.367188	-54.998016
3027.343750	-55.532978
3028.320312	-54.230721
3029.296875	-55.922470
3030.273438	-55.414169
3031.250000	-55.638500
3032.226562	-56.110447
3033.203125	-56.076981
3034.179688	-56.071156
3035.156250	-55.495838
3036.132812	-55.551964
3037.109375	-54.515686
3038.085938	-54.783409
3039.062500	-55.772343
3040.039062	-55.211460
3041.015625	-55.032364
3041.992188	-55.105339
3042.968750	-54.553970
3043.945312	-56.234978
3044.921875	-56.049030
3045.898438	-55.343544
3046.875000	-55.790249
3047.851562	-56.293476
3048.828125	-56.468895
3049.804688	-54.584473
3050.781250	-56.047215
3051.757812	-55.220196
3052.734375	-55.765896
3053.710938	-56.646507
3054.687500	-56.028736
3055.664062	-57.002941
3056.640625	-55.069000
3057.617188	-55.769321
3058.593750	-55.521210
3059.570312	-56.001965
3060.546875	-55.312595
3061.523438	-55.315041
3062.500000	-55.524570
3063.476562	-56.188759
3064.453125	-55.724438
3065.429688	-55.525234
3066.406250	-55.825375
3067.382812	-55.502144
3068.359375	-55.749229
3069.335938	-56.094650
3070.312500	-56.445866
3071.289062	-54.782646
3072.265625	-54.310436
3073.242188	-55.574696
3074.218750	-56.056236
3075.195312	-55.440388
3076.171875	-54.305832
3077.148438	-54.626537
3078.125000	-55.507069
3079.101562	-55.360821
3080.078125	-54.198345
3081.054688	-54.852222
3082.031250	-55.631363
3083.007812	-54.008842
3083.984375	-56.078186
3084.960938	-55.276653
3085.937500	-55.171078
3086.914062	-55.002861
3087.890625	-56.554001
3088.867188	-54.898663
3089.843750	-54.024963
3090.820312	-55.248138
3091.796875	-54.581604
3092.773438	-55.822182
3093.750000	-55.243130
3094.726562	-54.078289
3095.703125	-54.645462
3096.679688	-54.944656
3097.656250	-54.093521
3098.632812	-53.430382
3099.609375	-53.765450
3100.585938	-53.536217
3101.562500	-53.877609
3102.539062	-53.138485
3103.515625	-53.729092
3104.492188	-54.716171
3105.468750	-52.951202
3106.445312	-52.978622
3107.421875	-53.854275
3108.398438	-54.384956
3109.375000	-53.476021
3110.351562	-53.170464
3111.328125	-53.695465
3112.304688	-53.465382
3113.281250	-52.704792
3114.257812	-51.960266
3115.234375	-52.760952
3116.210938	-53.003700
3117.187500	-53.988373
3118.164062	-52.130909
3119.140625	-51.841316
3120.117188	-52.638882
3121.093750	-52.060123
3122.070312	-52.301773
3123.046875	-52.543304
3124.023438	-51.933102
3125.000000	-52.268768
3125.976562	-50.666843
3126.953125	-52.253662
3127.929688	-52.405758
3128.906250	-51.944534
3129.882812	-51.246624
3130.859375	-51.265656
3131.835938	-51.295731
3132.812500	-51.782593
3133.789062	-51.241669
3134.765625	-51.265217
3135.742188	-50.980537
3136.718750	-50.350002
3137.695312	-50.779762
3138.671875	-52.378620
3139.648438	-50.087666
3140.625000	-51.002121
3141.601562	-51.263214
3142.578125	-50.215225
3143.554688	-50.773228
3144.531250	-49.102345
3145.507812	-49.549561
3146.484375	-49.777653
3147.460938	-48.582561
3148.437500	-49.138557
3149.414062	-48.810524
3150.390625	-48.905476
3151.367188	-48.509747
3152.343750	-48.633095
3153.320312	-49.181656
3154.296875	-47.325245
3155.273438	-48.039761
3156.250000	-48.078781
3157.226562	-47.138050
3158.203125	-47.299156
3159.179688	-47.116722
3160.156250	-48.808250
3161.132812	-48.126713
3162.109375	-46.444416
3163.085938	-48.059959
3164.062500	-47.316753
3165.039062	-47.190521
3166.015625	-46.520546
3166.992188	-45.592136
3167.968750	-46.892490
3168.945312	-46.407890
3169.921875	-44.656441
3170.898438	-44.702385
3171.875000	-45.076946
3172.851562	-45.529499
3173.828125	-45.199318
3174.804688	-45.707466
3175.781250	-44.448578
3176.757812	-44.088047
3177.734375	-43.792805
3178.710938	-44.458027
3179.687500	-42.914673
3180.664062	-43.631859
3181.640625	-43.627068
3182.617188	-42.853336
3183.593750	-43.375675
3184.570312	-42.781399
3185.546875	-44.110352
3186.523438	-42.940029
3187.500000	-42.286465
3188.476562	-44.025402
3189.453125	-43.626610
3190.429688	-41.814590
3191.406250	-42.362663
3192.382812	-44.812378
3193.359375	-45.185169
3194.335938	-44.155041
3195.312500	-44.433990
3196.289062	-44.053268
3197.265625	-43.204552
3198.242188	-45.420315
3199.218750	-43.362186
3200.195312	-44.839520
3201.171875	-44.235069
3202.148438	-44.345131
3203.125000	-44.773979
3204.101562	-44.640858
3205.078125	-45.482502
3206.054688	-44.394325
3207.031250	-45.351921
3208.007812	-44.964191
3208.984375	-45.209000
3209.960938	-45.715729
3210.937500	-45.023975
3211.914062	-45.829266
3212.890625	-47.752892
3213.867188	-45.892677
3214.843750	-47.480820
3215.820312	-47.311142
3216.796875	-46.839294
3217.773438	-47.452942
3218.750000	-46.174259
3219.726562	-47.656948
3220.703125	-48.266090
3221.679688	-48.468311
3222.656250	-48.032066
3223.632812	-47.514133
3224.609375	-49.199455
3225.585938	-49.566360
3226.562500	-49.249439
3227.539062	-49.967735
3228.515625	-49.846592
3229.492188	-48.656513
3230.468750	-49.079884
3231.445312	-49.271088
3232.421875	-50.463306
3233.398438	-48.686878
3234.375000	-49.741344
3235.351562	-49.384239
3236.328125	-50.552368
3237.304688	-50.623501
3238.281250	-50.678387
3239.257812	-50.720070
3240.234375	-51.122242
3241.210938	-49.778492
3242.187500	-49.468441
3243.164062	-49.984489
3244.140625	-50.962143
3245.117188	-51.406208
3246.093750	-52.031353
3247.070312	-51.211464
3248.046875	-51.146378
3249.023438	-51.619087
3250.000000	-51.369713
3250.976562	-50.793690
3251.953125	-51.031822
3252.929688	-50.738937
3253.906250	-51.570827
3254.882812	-51.852383
3255.859375	-52.014679
3256.835938	-51.859497
3257.812500	-52.522507
3258.789062	-53.177605
3259.765625	-51.785927
3260.742188	-53.154964
3261.718750	-52.393105
3262.695312	-52.957088
3263.671875	-54.016289
3264.648438	-51.852306
3265.625000	-53.615055
3266.601562	-52.037312
3267.578125	-53.261681
3268.554688	-53.949963
3269.531250	-52.865105
3270.507812	-53.913979
3271.484375	-53.667603
3272.460938	-53.244713
3273.437500	-54.106853
3274.414062	-55.159172
3275.390625	-52.476627
3276.367188	-52.721195
3277.343750	-52.811741
3278.320312	-55.291988
3279.296875	-53.193558
3280.273438	-52.801693
3281.250000	-52.785172
3282.226562	-53.696205
3283.203125	-54.636898
3284.179688	-54.603374
3285.156250	-53.820656
3286.132812	-54.003944
3287.109375	-55.048000
3288.085938	-54.681477
3289.062500	-53.808434
3290.039062	-53.863899
3291.015625	-53.787598
3291.992188	-54.652378
3292.968750	-54.932259
3293.945312	-54.838867
3294.921875	-54.457642
3295.898438	-54.461163
3296.875000	-54.631405
3297.851562	-54.788517
3298.828125	-54.522610
3299.804688	-54.758366
3300.781250	-55.325321
3301.757812	-54.161953
3302.734375	-54.616734
3303.710938	-54.332798
3304.687500	-54.859230
3305.664062	-55.863373
3306.640625	-55.624939
3307.617188	-56.441078
3308.593750	-55.716202
3309.570312	-53.872807
3310.546875	-54.458874
3311.523438	-54.981007
3312.500000	-54.000118
3313.476562	-57.374577
3314.453125	-55.951557
3315.429688	-55.550259
3316.406250	-54.285999
3317.382812	-54.368668
3318.359375	-54.935589
3319.335938	-56.173367
3320.312500	-54.593594
3321.289062	-54.503197
3322.265625	-55.492668
3323.242188	-54.871601
3324.218750	-54.323418
3325.195312	-54.721992
3326.171875	-54.946590
3327.148438	-55.221092
3328.125000	-54.554276
3329.101562	-55.707016
3330.078125	-55.060619
3331.054688	-54.019577
3332.031250	-55.621342
3333.007812	-55.813900
3333.984375	-56.649544
3334.960938	-55.195591
3335.937500	-54.313980
3336.914062	-54.756794
3337.890625	-54.836586
3338.867188	-54.675793
3339.843750	-54.162514
3340.820312	-54.655495
3341.796875	-53.859440
3342.773438	-55.277096
3343.750000	-55.158154
3344.726562	-54.578796
3345.703125	-54.649059
3346.679688	-55.076874
3347.656250	-53.183212
3348.632812	-55.601429
3349.609375	-55.257027
3350.585938	-54.360512
3351.562500	-54.683224
3352.539062	-53.851749
3353.515625	-54.057392
3354.492188	-54.474396
3355.468750	-53.752003
3356.445312	-54.592319
3357.421875	-54.234344
3358.398438	-53.831711
3359.375000	-55.415806
3360.351562	-53.696384
3361.328125	-54.507679
3362.304688	-55.692352
3363.281250	-53.886608
3364.257812	-52.363495
3365.234375	-53.555534
3366.210938	-54.299286
3367.187500	-54.394909
3368.164062	-52.597248
3369.140625	-53.203629
3370.117188	-52.605179
3371.093750	-53.527050
3372.070312	-53.638958
3373.046875	-53.168446
3374.023438	-54.110207
3375.000000	-53.873508
3375.976562	-53.099258
3376.953125	-51.754765
3377.929688	-52.536304
3378.906250	-53.304432
3379.882812	-52.934586
3380.859375	-52.990288
3381.835938	-51.950848
3382.812500	-54.137646
3383.789062	-52.081680
3384.765625	-51.715385
3385.742188	-51.171329
3386.718750	-51.636906
3387.695312	-53.188915
3388.671875	-52.451332
3389.648438	-52.567532
3390.625000	-52.592842
3391.601562	-52.992699
3392.578125	-51.465862
3393.554688	-53.717255
3394.531250	-53.109665
3395.507812	-52.372513
3396.484375	-51.848713
3397.460938	-51.903072
3398.437500	-51.484097
3399.414062	-52.030983
3400.390625	-51.046490
3401.367188	-50.281193
3402.343750	-50.715595
3403.320312	-50.915234
3404.296875	-51.703915
3405.273438	-50.352913
3406.250000	-50.333393
3407.226562	-49.865562
3408.203125	-49.612103
3409.179688	-50.443455
3410.156250	-48.196079
3411.132812	-48.081253
3412.109375	-49.381012
3413.085938	-50.209610
3414.062500	-50.654758
3415.039062	-49.044952
3416.015625	-48.562355
3416.992188	-49.202900
3417.968750	-49.107239
3418.945312	-47.795353
3419.921875	-47.666672
3420.898438	-48.079990
3421.875000	-48.301792
3422.851562	-48.282780
3423.828125	-48.012642
3424.804688	-47.581696
3425.781250	-47.927956
3426.757812	-46.952042
3427.734375	-46.613541
3428.710938	-47.810104
3429.687500	-47.164654
3430.664062	-46.665249
3431.640625	-45.923321
3432.617188	-47.174698
3433.593750	-45.801258
3434.570312	-45.528305
3435.546875	-47.070583
3436.523438	-46.671780
3437.500000	-44.246330
3438.476562	-43.565342
3439.453125	-45.076332
3440.429688	-45.627823
3441.406250	-43.964588
3442.382812	-44.394268
3443.359375	-45.054398
3444.335938	-45.212357
3445.312500	-45.475124
3446.289062	-44.973698
3447.265625	-44.661728
3448.242188	-44.724167
3449.218750	-43.618389
3450.195312	-43.467850
3451.171875	-44.029331
3452.148438	-43.609512
3453.125000	-44.563187
3454.101562	-45.623291
3455.078125	-44.422077
3456.054688	-43.437798
3457.031250	-43.161392
3458.007812	-43.636509
3458.984375	-43.701172
3459.960938	-43.491943
3460.937500	-44.172615
3461.914062	-42.981606
3462.890625	-44.824165
3463.867188	-44.031097
3464.843750	-43.874870
3465.820312	-43.712147
3466.796875	-44.573711
3467.773438	-44.596771
3468.750000	-44.326889
3469.726562	-44.244446
3470.703125	-45.302029
3471.679688	-45.178471
3472.656250	-45.290943
3473.632812	-45.025440
3474.609375	-44.977074
3475.585938	-46.764870
3476.562500	-46.465782
3477.539062	-47.072334
3478.515625	-47.076439
3479.492188	-45.794563
3480.468750	-46.120148
3481.445312	-46.761387
3482.421875	-47.485424
3483.398438	-47.823421
3484.375000	-47.062286
3485.351562	-47.479847
3486.328125	-49.187538
3487.304688	-47.945774
3488.281250	-47.804222
3489.257812	-46.992538
3490.234375	-49.326565
3491.210938	-48.207809
3492.187500	-49.118675
3493.164062	-48.908215
3494.140625	-48.954288
3495.117188	-49.628448
3496.093750	-49.774708
3497.070312	-48.307896
3498.046875	-50.009636
3499.023438	-49.396519
3500.000000	-49.403584
3500.976562	-50.484993
3501.953125	-49.328651
3502.929688	-50.580063
3503.906250	-50.138340
3504.882812	-50.083263
3505.859375	-52.086227
3506.835938	-50.873245
3507.812500	-50.560680
3508.789062	-51.965347
3509.765625	-51.407566
3510.742188	-50.686810
3511.718750	-52.264137
3512.695312	-52.704544
3513.671875	-52.272182
3514.648438	-51.299641
3515.625000	-51.821964
3516.601562	-51.816837
3517.578125	-51.497036
3518.554688	-51.931847
3519.531250	-52.955910
3520.507812	-52.713844
3521.484375	-52.843166
3522.460938	-51.365578
3523.437500	-51.470848
3524.414062	-53.563374
3525.390625	-52.146603
3526.367188	-52.439629
3527.343750	-53.234779
3528.320312	-53.008667
3529.296875	-53.505753
3530.273438	-54.159298
3531.250000	-53.564777
3532.226562	-53.671894
3533.203125	-52.435909
3534.179688	-52.765717
3535.156250	-53.506935
3536.132812	-53.128517
3537.109375	-53.435535
3538.085938	-53.190559
3539.062500	-53.552979
3540.039062	-54.705280
3541.015625	-53.799992
3541.992188	-54.291538
3542.968750	-54.604137
3543.945312	-53.572109
3544.921875	-52.970535
3545.898438	-54.168709
3546.875000	-54.995171
3547.851562	-54.074684
3548.828125	-54.101891
3549.804688	-54.599354
3550.781250	-54.612633
3551.757812	-53.437603
3552.734375	-55.246902
3553.710938	-55.462418
3554.687500	-55.185650
3555.664062	-55.302021
3556.640625	-54.308430
3557.617188	-54.823086
3558.593750	-54.939655
3559.570312	-55.010273
3560.546875	-55.340034
3561.523438	-55.114613
3562.500000	-54.000423
3563.476562	-53.876991
3564.453125	-54.823807
3565.429688	-55.136890
3566.406250	-54.069118
3567.382812	-53.927097
3568.359375	-55.544899
3569.335938	-55.438187
3570.312500	-55.730129
3571.289062	-54.991028
3572.265625	-54.227261
3573.242188	-55.465878
3574.218750	-54.716003
3575.195312	-55.284157
3576.171875	-55.972183
3577.148438	-54.688412
3578.125000	-54.537357
3579.101562	-55.888550
3580.078125	-54.844795
3581.054688	-54.484699
3582.031250	-54.239449
3583.007812	-55.743160
3583.984375	-55.229759
3584.960938	-55.779808
3585.937500	-55.222828
3586.914062	-54.991856
3587.890625	-55.469902
3588.867188	-55.839546
3589.843750	-55.683437
3590.820312	-55.586067
3591.796875	-55.538982
3592.773438	-54.346615
3593.750000	-56.273232
3594.726562	-54.901875
3595.703125	-54.730358
3596.679688	-55.515949
3597.656250	-55.366669
3598.632812	-54.857586
3599.609375	-55.172077
3600.585938	-55.119370
3601.562500	-55.243328
3602.539062	-53.223976
3603.515625	-55.852695
3604.492188	-55.652905
3605.468750	-55.928307
3606.445312	-55.975624
3607.421875	-55.165298
3608.398438	-53.561577
3609.375000	-54.492542
3610.351562	-53.627331
3611.328125	-54.795341
3612.304688	-54.312649
3613.281250	-55.553749
3614.257812	-56.440937
3615.234375	-54.506237
3616.210938	-54.650482
3617.187500	-55.388893
3618.164062	-55.705814
3619.140625	-56.342999
3620.117188	-54.058632
3621.093750	-53.894062
3622.070312	-54.306934
3623.046875	-54.338734
3624.023438	-55.091305
3625.000000	-53.140465
3625.976562	-54.679337
3626.953125	-53.973690
3627.929688	-55.557903
3628.906250	-54.333508
3629.882812	-54.554882
3630.859375	-54.327602
3631.835938	-55.387543
3632.812500	-55.466938
3633.789062	-53.744911
3634.765625	-53.178696
3635.742188	-55.517025
3636.718750	-53.986626
3637.695312	-54.428154
3638.671875	-52.809071
3639.648438	-53.529469
3640.625000	-52.924171
3641.601562	-52.676918
3642.578125	-53.866165
3643.554688	-53.384640
3644.531250	-52.898571
3645.507812	-53.597683
3646.484375	-53.964703
3647.460938	-53.245071
3648.437500	-53.859898
3649.414062	-53.730175
3650.390625	-53.477928
3651.367188	-53.699039
3652.343750	-54.531670
3653.320312	-52.151661
3654.296875	-51.698746
3655.273438	-52.852772
3656.250000	-52.990940
3657.226562	-52.176235
3658.203125	-53.124611
3659.179688	-53.817539
3660.156250	-52.542572
3661.132812	-52.168407
3662.109375	-52.340961
3663.085938	-52.641933
3664.062500	-52.047909
3665.039062	-51.871433
3666.015625	-51.632576
3666.992188	-50.413342
3667.968750	-52.709888
3668.945312	-51.375988
3669.921875	-52.011799
3670.898438	-50.963936
3671.875000	-50.326820
3672.851562	-51.485001
3673.828125	-51.385181
3674.804688	-51.213734
3675.781250	-50.565544
3676.757812	-50.648582
3677.734375	-50.166454
3678.710938	-50.467926
3679.687500	-50.644585
3680.664062	-50.211128
3681.640625	-49.944973
3682.617188	-50.890068
3683.593750	-49.701683
3684.570312	-49.843582
3685.546875	-48.937401
3686.523438	-49.365929
3687.500000	-48.890476
3688.476562	-48.778278
3689.453125	-48.240837
3690.429688	-47.901745
3691.406250	-48.007313
3692.382812	-47.458111
3693.359375	-46.530853
3694.335938	-47.618488
3695.312500	-47.879936
3696.289062	-47.333637
3697.265625	-47.362251
3698.242188	-46.280239
3699.218750	-46.160042
3700.195312	-46.257938
3701.171875	-46.670708
3702.148438	-46.997673
3703.125000	-45.581074
3704.101562	-45.393215
3705.078125	-44.907307
3706.054688	-44.875397
3707.031250	-45.685654
3708.007812	-45.843182
3708.984375	-46.222527
3709.960938	-44.964897
3710.937500	-45.811901
3711.914062	-44.393120
3712.890625	-46.129734
3713.867188	-46.599804
3714.843750	-45.046242
3715.820312	-45.758686
3716.796875	-44.165791
3717.773438	-44.299885
3718.750000	-45.054157
3719.726562	-45.205448
3720.703125	-43.669067
3721.679688	-43.833973
3722.656250	-43.787792
3723.632812	-45.328003
3724.609375	-43.699245
3725.585938	-43.642399
3726.562500	-43.675873
3727.539062	-44.120358
3728.515625	-45.631626
3729.492188	-44.637924
3730.468750	-44.635506
3731.445312	-45.535912
3732.421875	-44.629433
3733.398438	-45.331615
3734.375000	-45.766651
3735.351562	-46.656734
3736.328125	-45.768169
3737.304688	-46.279083
3738.281250	-46.982826
3739.257812	-46.132622
3740.234375	-47.822407
3741.210938	-48.034332
3742.187500	-47.980877
3743.164062	-47.982769
3744.140625	-47.272327
3745.117188	-47.726578
3746.093750	-47.184189
3747.070312	-47.045967
3748.046875	-48.631924
3749.023438	-48.382950
3750.000000	-49.037788
3750.976562	-50.545639
3751.953125	-48.356308
3752.929688	-48.475060
3753.906250	-49.200230
3754.882812	-49.328106
3755.859375	-49.581398
3756.835938	-49.818562
3757.812500	-50.663361
3758.789062	-50.668587
3759.765625	-49.093620
3760.742188	-50.054482
3761.718750	-50.828426
3762.695312	-51.168121
3763.671875	-50.566559
3764.648438	-50.973213
3765.625000	-51.686653
3766.601562	-51.378048
3767.578125	-51.776043
3768.554688	-51.611927
3769.531250	-51.881863
3770.507812	-52.237793
3771.484375	-50.857761
3772.460938	-49.913490
3773.437500	-51.641003
3774.414062	-52.499863
3775.390625	-52.390198
3776.367188	-53.881989
3777.343750	-52.178692
3778.320312	-51.756096
3779.296875	-51.011620
3780.273438	-52.866432
3781.250000	-51.417683
3782.226562	-52.958992
3783.203125	-52.849720
3784.179688	-52.167801
3785.156250	-52.652542
3786.132812	-52.205269
3787.109375	-53.747509
3788.085938	-53.993668
3789.062500	-54.385517
3790.039062	-53.836838
3791.015625	-53.847019
3791.992188	-53.314735
3792.968750	-53.335083
3793.945312	-54.433811
3794.921875	-54.620041
3795.898438	-54.346413
3796.875000	-53.810329
3797.851562	-54.340317
3798.828125	-52.913830
3799.804688	-55.361458
3800.781250	-54.957771
3801.757812	-53.476624
3802.734375	-53.815041
3803.710938	-53.999115
3804.687500	-54.547310
3805.664062	-55.083370
3806.640625	-53.509583
3807.617188	-55.837402
3808.593750	-55.566082
3809.570312	-54.877987
3810.546875	-55.704205
3811.523438	-55.291630
3812.500000	-54.995380
3813.476562	-54.792103
3814.453125	-54.462612
3815.429688	-54.802814
3816.406250	-54.635666
3817.382812	-54.632988
3818.359375	-55.019608
3819.335938	-55.578236
3820.312500	-55.149258
3821.289062	-56.470478
3822.265625	-56.135906
3823.242188	-55.574471
3824.218750	-55.432682
3825.195312	-55.478165
3826.171875	-54.973400
3827.148438	-56.104546
3828.125000	-55.522709
3829.101562	-54.562691
3830.078125	-55.960384
3831.054688	-54.860836
3832.031250	-55.930073
3833.007812	-56.882095
3833.984375	-55.909378
3834.960938	-54.458065
3835.937500	-55.716484
3836.914062	-57.002777
3837.890625	-56.132652
3838.867188	-55.358391
3839.843750	-55.165848
3840.820312	-56.812511
3841.796875	-56.419239
3842.773438	-56.444050
3843.750000	-56.447941
3844.726562	-56.813950
3845.703125	-54.828350
3846.679688	-56.002865
3847.656250	-55.363853
3848.632812	-55.435013
3849.609375	-55.937794
3850.585938	-56.428009
3851.562500	-55.417522
3852.539062	-55.646034
3853.515625	-55.764282
3854.492188	-55.600143
3855.468750	-56.219250
3856.445312	-55.996677
3857.421875	-55.181412
3858.398438	-57.069851
3859.375000	-56.912254
3860.351562	-56.135887
3861.328125	-57.129303
3862.304688	-56.083660
3863.281250	-55.601212
3864.257812	-56.244656
3865.234375	-57.100136
3866.210938	-56.306717
3867.187500	-55.349701
3868.164062	-56.185730
3869.140625	-57.073746
3870.117188	-56.661613
3871.093750	-55.463085
3872.070312	-55.429649
3873.046875	-55.935009
3874.023438	-55.461464
3875.000000	-55.598206
3875.976562	-56.687614
3876.953125	-57.271397
3877.929688	-55.617271
3878.906250	-55.666107
3879.882812	-56.454990
3880.859375	-56.302906
3881.835938	-56.169315
3882.812500	-54.775589
3883.789062	-55.671837
3884.765625	-55.832413
3885.742188	-55.676796
3886.718750	-56.462269
3887.695312	-55.907063
3888.671875	-55.199913
3889.648438	-55.955540
3890.625000	-54.290897
3891.601562	-54.723839
3892.578125	-55.258804
3893.554688	-55.218197
3894.531250	-53.978657
3895.507812	-54.754932
3896.484375	-54.397442
3897.460938	-55.245090
3898.437500	-56.030910
3899.414062	-55.761559
3900.390625	-55.155933
3901.367188	-54.871861
3902.343750	-54.623524
3903.320312	-55.045437
3904.296875	-54.677856
3905.273438	-56.561821
3906.250000	-56.685215
3907.226562	-55.017452
3908.203125	-54.705322
3909.179688	-53.523170
3910.156250	-54.988602
3911.132812	-53.070381
3912.109375	-53.716015
3913.085938	-53.745743
3914.062500	-53.606342
3915.039062	-53.426929
3916.015625	-53.218197
3916.992188	-53.821548
3917.968750	-52.873959
3918.945312	-53.121273
3919.921875	-54.683361
3920.898438	-54.217682
3921.875000	-52.951054
3922.851562	-53.446003
3923.828125	-53.088638
3924.804688	-52.792980
3925.781250	-52.897129
3926.757812	-52.795868
3927.734375	-52.295647
3928.710938	-52.877922
3929.687500	-52.396439
3930.664062	-52.941181
3931.640625	-50.838402
3932.617188	-51.850765
3933.593750	-50.479374
3934.570312	-51.809608
3935.546875	-52.087170
3936.523438	-50.928436
3937.500000	-50.561977
3938.476562	-50.489998
3939.453125	-51.320629
3940.429688	-51.633492
3941.406250	-51.225590
3942.382812	-50.752098
3943.359375	-50.769997
3944.335938	-49.508480
3945.312500	-50.093292
3946.289062	-52.426876
3947.265625	-51.992420
3948.242188	-51.162762
3949.218750	-48.569668
3950.195312	-49.688892
3951.171875	-48.745316
3952.148438	-49.956875
3953.125000	-49.210972
3954.101562	-49.158974
3955.078125	-49.710983
3956.054688	-48.339642
3957.031250	-49.601753
3958.007812	-47.511078
3958.984375	-48.585529
3959.960938	-48.245640
3960.937500	-49.258869
3961.914062	-47.493729
3962.890625	-47.872196
3963.867188	-49.463478
3964.843750	-48.341171
3965.820312	-46.986790
3966.796875	-47.652264
3967.773438	-47.625996
3968.750000	-47.429066
3969.726562	-47.230801
3970.703125	-46.415356
3971.679688	-46.784485
3972.656250	-46.026989
3973.632812	-44.781235
3974.609375	-46.616783
3975.585938	-46.347515
3976.562500	-45.535950
3977.539062	-45.496120
3978.515625	-45.867161
3979.492188	-46.454491
3980.468750	-44.578060
3981.445312	-43.854507
3982.421875	-45.207085
3983.398438	-45.092865
3984.375000	-45.501976
3985.351562	-46.400570
3986.328125	-45.191879
3987.304688	-45.668804
3988.281250	-44.422829
3989.257812	-44.241196
3990.234375	-45.158913
3991.210938	-45.163685
3992.187500	-46.095699
3993.164062	-45.876186
3994.140625	-45.843601
3995.117188	-45.540237
3996.093750	-46.318687
3997.070312	-46.149464
3998.046875	-44.965851
3999.023438	-47.212490
4000.000000	-47.749741
4000.976562	-46.675266
4001.953125	-46.839092
4002.929688	-46.914738
4003.906250	-46.838512
4004.882812	-46.956715
4005.859375	-47.510937
4006.835938	-47.034771
4007.812500	-46.959488
4008.789062	-48.715145
4009.765625	-47.610237
4010.742188	-47.809078
4011.718750	-50.114944
4012.695312	-48.961201
4013.671875	-48.288124
4014.648438	-49.170971
4015.625000	-49.212463
4016.601562	-48.936131
4017.578125	-50.172470
4018.554688	-50.664902
4019.531250	-49.649086
4020.507812	-50.140694
4021.484375	-50.475376
4022.460938	-49.783592
4023.437500	-50.122684
4024.414062	-50.507179
4025.390625	-50.404850
4026.367188	-50.560646
4027.343750	-50.957771
4028.320312	-52.499580
4029.296875	-51.453327
4030.273438	-50.498787
4031.250000	-50.135880
4032.226562	-51.641716
4033.203125	-51.285709
4034.179688	-52.274261
4035.156250	-51.641102
4036.132812	-51.802143
4037.109375	-53.292564
4038.085938	-52.640484
4039.062500	-52.156570
4040.039062	-52.128353
4041.015625	-53.137669
4041.992188	-53.089142
4042.968750	-52.901451
4043.945312	-53.119064
4044.921875	-53.098625
4045.898438	-52.829636
4046.875000	-53.794300
4047.851562	-54.428391
4048.828125	-52.149464
4049.804688	-54.055676
4050.781250	-54.669010
4051.757812	-54.313850
4052.734375	-53.994896
4053.710938	-53.681839
4054.687500	-54.623970
4055.664062	-54.261017
4056.640625	-55.020802
4057.617188	-54.470852
4058.593750	-54.515949
4059.570312	-54.189983
4060.546875	-54.921497
4061.523438	-56.098568
4062.500000	-54.445827
4063.476562	-54.727703
4064.453125	-55.268829
4065.429688	-55.165352
4066.406250	-54.068035
4067.382812	-54.329765
4068.359375	-55.100529
4069.335938	-54.575829
4070.312500	-54.178947
4071.289062	-54.536037
4072.265625	-54.795040
4073.242188	-55.058064
4074.218750	-54.705402
4075.195312	-56.066593
4076.171875	-56.131958
4077.148438	-55.293659
4078.125000	-56.256557
4079.101562	-55.025883
4080.078125	-56.103233
4081.054688	-55.269440
4082.031250	-56.205677
4083.007812	-56.850224
4083.984375	-54.855247
4084.960938	-55.301266
4085.937500	-56.255074
4086.914062	-57.217094
4087.890625	-57.632298
4088.867188	-55.954769
4089.843750	-55.877846
4090.820312	-56.535015
4091.796875	-55.948536
4092.773438	-57.931763
4093.750000	-56.658028
4094.726562	-56.627926
4095.703125	-56.191982
4096.679688	-57.084476
4097.656250	-56.693535
4098.632812	-55.992691
4099.609375	-56.191780
4100.585938	-57.631516
4101.562500	-57.779209
4102.539062	-57.382820
4103.515625	-56.114906
4104.492188	-57.389305
4105.468750	-55.721676
4106.445312	-56.194054
4107.421875	-55.817692
4108.398438	-56.400360
4109.375000	-56.445450
4110.351562	-56.766090
4111.328125	-56.425251
4112.304688	-56.535408
4113.281250	-57.721336
4114.257812	-56.552479
4115.234375	-57.093830
4116.210938	-56.505898
4117.187500	-57.928883
4118.164062	-55.668724
4119.140625	-57.342697
4120.117188	-56.224430
4121.093750	-57.926613
4122.070312	-56.417751
4123.046875	-56.265724
4124.023438	-57.581711
4125.000000	-57.055008
4125.976562	-56.858883
4126.953125	-57.218380
4127.929688	-57.085068
4128.906250	-57.527630
4129.882812	-57.338913
4130.859375	-57.569504
4131.835938	-56.105080
4132.812500	-55.864426
4133.789062	-56.444202
4134.765625	-57.135456
4135.742188	-56.632526
4136.718750	-56.274723
4137.695312	-56.086025
4138.671875	-57.698654
4139.648438	-55.996830
4140.625000	-56.770084
4141.601562	-56.438362
4142.578125	-56.040501
4143.554688	-57.186260
4144.531250	-56.435844
4145.507812	-55.146950
4146.484375	-55.559505
4147.460938	-55.984539
4148.437500	-57.416283
4149.414062	-56.873413
4150.390625	-56.087063
4151.367188	-55.936211
4152.343750	-56.280170
4153.320312	-56.074318
4154.296875	-55.265076
4155.273438	-55.211658
4156.250000	-54.611782
4157.226562	-55.697411
4158.203125	-56.295124
4159.179688	-55.886333
4160.156250	-54.990932
4161.132812	-55.794170
4162.109375	-56.193825
4163.085938	-54.563633
4164.062500	-55.729637
4165.039062	-55.237553
4166.015625	-54.606239
4166.992188	-54.151920
4167.968750	-55.704926
4168.945312	-55.981037
4169.921875	-56.254307
4170.898438	-56.228634
4171.875000	-55.711628
4172.851562	-54.194126
4173.828125	-55.099316
4174.804688	-54.710300
4175.781250	-53.752144
4176.757812	-54.408760
4177.734375	-54.785046
4178.710938	-55.018147
4179.687500	-54.929764
4180.664062	-55.090103
4181.640625	-53.783939
4182.617188	-54.773281
4183.593750	-53.494408
4184.570312	-54.005524
4185.546875	-54.879017
4186.523438	-55.089592
4187.500000	-54.333138
4188.476562	-53.338299
4189.453125	-54.763096
4190.429688	-54.165684
4191.406250	-52.637260
4192.382812	-51.908569
4193.359375	-52.369827
4194.335938	-52.508553
4195.312500	-52.701839
4196.289062	-54.348782
4197.265625	-52.874454
4198.242188	-53.222134
4199.218750	-52.250069
4200.195312	-51.500278
4201.171875	-52.948586
4202.148438	-52.361385
4203.125000	-51.567833
4204.101562	-51.164494
4205.078125	-50.641804
4206.054688	-51.917690
4207.031250	-51.926689
4208.007812	-50.129219
4208.984375	-51.097984
4209.960938	-50.888359
4210.937500	-52.150074
4211.914062	-51.596630
4212.890625	-50.228073
4213.867188	-51.353214
4214.843750	-51.787922
4215.820312	-49.668125
4216.796875	-49.720188
4217.773438	-49.629292
4218.750000	-49.623753
4219.726562	-49.689957
4220.703125	-51.012585
4221.679688	-48.440437
4222.656250	-49.180523
4223.632812	-48.870705
4224.609375	-48.601490
4225.585938	-48.721775
4226.562500	-48.103115
4227.539062	-48.618790
4228.515625	-46.929134
4229.492188	-47.817921
4230.468750	-48.596523
4231.445312	-47.944855
4232.421875	-47.870396
4233.398438	-46.414013
4234.375000	-46.239590
4235.351562	-47.300930
4236.328125	-46.779324
4237.304688	-46.678143
4238.281250	-47.348301
4239.257812	-47.360645
4240.234375	-45.957500
4241.210938	-46.732151
4242.187500	-45.858730
4243.164062	-45.672901
4244.140625	-45.180618
4245.117188	-44.576450
4246.093750	-46.016151
4247.070312	-46.715542
4248.046875	-46.380775
4249.023438	-46.144276
4250.000000	-45.506706
4250.976562	-44.919731
4251.953125	-45.574825
4252.929688	-46.084694
4253.906250	-46.054676
4254.882812	-45.384689
4255.859375	-45.747845
4256.835938	-46.255882
4257.812500	-46.875713
4258.789062	-45.691338
4259.765625	-45.944172
4260.742188	-46.521461
4261.718750	-45.945171
4262.695312	-45.908936
4263.671875	-47.353149
4264.648438	-46.897034
4265.625000	-47.475494
4266.601562	-47.831398
4267.578125	-48.155834
4268.554688	-49.946407
4269.531250	-47.321056
4270.507812	-47.659763
4271.484375	-48.485481
4272.460938	-48.293407
4273.437500	-49.051388
4274.414062	-48.483635
4275.390625	-49.703377
4276.367188	-48.688320
4277.343750	-49.040348
4278.320312	-49.721939
4279.296875	-49.911865
4280.273438	-49.932594
4281.250000	-49.942886
4282.226562	-50.660297
4283.203125	-50.480156
4284.179688	-50.874691
4285.156250	-50.943909
4286.132812	-50.996349
4287.109375	-50.997494
4288.085938	-50.727516
4289.062500	-50.044830
4290.039062	-51.209003
4291.015625	-52.890705
4291.992188	-51.338100
4292.968750	-51.703201
4293.945312	-51.525944
4294.921875	-50.351421
4295.898438	-51.597561
4296.875000	-52.481667
4297.851562	-51.773899
4298.828125	-52.981007
4299.804688	-53.527431
4300.781250	-52.468071
4301.757812	-50.044052
4302.734375	-51.655437
4303.710938	-53.403023
4304.687500	-52.159096
4305.664062	-53.392780
4306.640625	-53.633884
4307.617188	-53.987869
4308.593750	-54.828453
4309.570312	-53.878712
4310.546875	-54.059856
4311.523438	-53.999870
4312.500000	-54.488068
4313.476562	-54.453747
4314.453125	-54.171566
4315.429688	-53.307636
4316.406250	-54.061752
4317.382812	-53.621563
4318.359375	-54.014214
4319.335938	-54.409176
4320.312500	-53.875999
4321.289062	-54.121132
4322.265625	-56.247559
4323.242188	-54.472801
4324.218750	-55.022133
4325.195312	-54.654388
4326.171875	-54.604900
4327.148438	-53.895603
4328.125000	-55.227821
4329.101562	-54.475433
4330.078125	-54.981739
4331.054688	-55.511337
4332.031250	-54.385181
4333.007812	-54.869007
4333.984375	-55.274822
4334.960938	-55.753490
4335.937500	-54.919823
4336.914062	-54.745205
4337.890625	-55.106049
4338.867188	-56.999733
4339.843750	-55.901039
4340.820312	-56.233898
4341.796875	-56.320545
4342.773438	-55.858051
4343.750000	-55.488323
4344.726562	-56.027115
4345.703125	-58.036301
4346.679688	-57.446018
4347.656250	-56.070377
4348.632812	-54.591316
4349.609375	-55.988106
4350.585938	-56.011864
4351.562500	-56.377644
4352.539062	-56.694447
4353.515625	-56.429031
4354.492188	-56.597977
4355.468750	-55.918465
4356.445312	-56.668209
4357.421875	-57.617554
4358.398438	-57.661007
4359.375000	-56.816029
4360.351562	-55.825863
4361.328125	-56.743683
4362.304688	-56.190178
4363.281250	-56.715576
4364.257812	-56.299397
4365.234375	-55.563362
4366.210938	-56.966419
4367.187500	-56.654167
4368.164062	-56.733238
4369.140625	-56.338428
4370.117188	-56.276890
4371.093750	-56.308788
4372.070312	-56.921467
4373.046875	-56.247932
4374.023438	-57.369133
4375.000000	-56.779636
4375.976562	-55.560040
4376.953125	-56.468220
4377.929688	-56.394810
4378.906250	-57.209797
4379.882812	-57.259453
4380.859375	-57.220943
4381.835938	-56.790359
4382.812500	-55.989883
4383.789062	-56.917942
4384.765625	-57.123417
4385.742188	-57.997681
4386.718750	-57.138004
4387.695312	-55.963928
4388.671875	-57.046692
4389.648438	-55.483532
4390.625000	-56.922947
4391.601562	-56.745762
4392.578125	-56.954426
4393.554688	-56.351620
4394.531250	-55.987106
4395.507812	-55.726688
4396.484375	-57.657013
4397.460938	-55.931240
4398.437500	-57.014507
4399.414062	-55.684963
4400.390625	-56.272991
4401.367188	-57.449921
4402.343750	-56.895451
4403.320312	-57.030560
4404.296875	-57.393559
4405.273438	-57.948601
4406.250000	-55.137619
4407.226562	-56.969795
4408.203125	-55.712151
4409.179688	-54.944046
4410.156250	-55.972298
4411.132812	-56.449829
4412.109375	-57.950031
4413.085938	-56.107399
4414.062500	-57.041462
4415.039062	-57.409904
4416.015625	-55.523361
4416.992188	-55.826778
4417.968750	-55.125687
4418.945312	-55.445713
4419.921875	-54.581589
4420.898438	-55.927624
4421.875000	-55.391602
4422.851562	-56.118355
4423.828125	-55.466896
4424.804688	-54.422245
4425.781250	-56.180351
4426.757812	-55.556366
4427.734375	-54.068783
4428.710938	-56.351322
4429.687500	-55.068844
4430.664062	-55.676052
4431.640625	-55.682934
4432.617188	-55.236687
4433.593750	-56.052998
4434.570312	-53.683292
4435.546875	-53.806370
4436.523438	-54.515034
4437.500000	-54.976322
4438.476562	-55.396996
4439.453125	-55.593842
4440.429688	-55.112278
4441.406250	-54.989449
4442.382812	-54.247826
4443.359375	-56.523834
4444.335938	-54.479893
4445.312500	-53.335518
4446.289062	-53.464542
4447.265625	-54.503426
4448.242188	-54.885883
4449.218750	-53.296650
4450.195312	-54.227375
4451.171875	-54.046574
4452.148438	-54.391159
4453.125000	-52.648102
4454.101562	-54.459133
4455.078125	-53.356956
4456.054688	-54.671993
4457.031250	-53.818050
4458.007812	-53.536415
4458.984375	-52.312092
4459.960938	-52.505871
4460.937500	-53.317982
4461.914062	-53.230206
4462.890625	-53.570683
4463.867188	-52.732105
4464.843750	-51.805820
4465.820312	-52.316147
4466.796875	-50.967770
4467.773438	-52.632973
4468.750000	-50.879929
4469.726562	-51.260181
4470.703125	-52.783817
4471.679688	-51.434700
4472.656250	-51.966492
4473.632812	-51.210072
4474.609375	-51.606422
4475.585938	-51.543434
4476.562500	-50.797546
4477.539062	-52.033276
4478.515625	-50.232204
4479.492188	-50.899746
4480.468750	-50.937073
4481.445312	-51.851406
4482.421875	-49.510094
4483.398438	-50.436718
4484.375000	-50.121475
4485.351562	-49.129951
4486.328125	-48.593983
4487.304688	-51.268978
4488.281250	-49.135994
4489.257812	-47.811302
4490.234375	-49.931896
4491.210938	-47.318638
4492.187500	-48.783524
4493.164062	-48.241402
4494.140625	-48.969734
4495.117188	-47.449005
4496.093750	-49.999336
4497.070312	-46.443024
4498.046875	-47.579365
4499.023438	-47.295963
4500.000000	-47.690449
4500.976562	-47.775295
4501.953125	-48.072739
4502.929688	-45.937572
4503.906250	-46.945789
4504.882812	-47.303520
4505.859375	-48.073982
4506.835938	-46.729607
4507.812500	-46.150185
4508.789062	-46.829628
4509.765625	-45.782688
4510.742188	-44.870937
4511.718750	-46.380089
4512.695312	-46.698097
4513.671875	-46.298046
4514.648438	-46.269402
4515.625000	-46.481663
4516.601562	-48.075855
4517.578125	-47.071068
4518.554688	-47.558987
4519.531250	-47.395836
4520.507812	-47.682579
4521.484375	-47.115639
4522.460938	-47.209175
4523.437500	-47.370323
4524.414062	-48.257622
4525.390625	-47.845001
4526.367188	-46.951202
4527.343750	-47.481598
4528.320312	-47.763657
4529.296875	-47.430466
4530.273438	-47.964302
4531.250000	-48.023457
4532.226562	-48.626606
4533.203125	-47.854820
4534.179688	-47.786816
4535.156250	-48.213371
4536.132812	-47.662251
4537.109375	-50.304916
4538.085938	-49.511971
4539.062500	-48.171200
4540.039062	-48.631565
4541.015625	-49.893055
4541.992188	-49.333542
4542.968750	-49.465122
4543.945312	-49.338615
4544.921875	-52.085461
4545.898438	-50.492519
4546.875000	-49.907818
4547.851562	-50.247868
4548.828125	-51.019711
4549.804688	-51.588661
4550.781250	-50.792358
4551.757812	-51.306431
4552.734375	-50.471088
4553.710938	-51.374023
4554.687500	-51.170067
4555.664062	-50.907227
4556.640625	-50.853138
4557.617188	-52.906319
4558.593750	-51.469700
4559.570312	-52.256546
4560.546875	-51.884895
4561.523438	-51.366425
4562.500000	-51.629780
4563.476562	-52.305988
4564.453125	-52.644543
4565.429688	-53.576534
4566.406250	-53.633675
4567.382812	-51.990093
4568.359375	-53.788464
4569.335938	-53.357128
4570.312500	-51.809227
4571.289062	-53.320004
4572.265625	-53.441723
4573.242188	-53.990780
4574.218750	-53.976475
4575.195312	-53.983963
4576.171875	-53.265961
4577.148438	-54.358543
4578.125000	-55.021240
4579.101562	-54.437881
4580.078125	-54.566517
4581.054688	-55.059898
4582.031250	-54.757957
4583.007812	-54.641777
4583.984375	-54.665836
4584.960938	-54.329155
4585.937500	-53.753777
4586.914062	-55.510101
4587.890625	-54.725666
4588.867188	-55.515629
4589.843750	-55.175812
4590.820312	-56.809849
4591.796875	-53.688725
4592.773438	-54.154793
4593.750000	-55.689495
4594.726562	-55.109058
4595.703125	-54.546047
4596.679688	-54.474342
4597.656250	-55.695084
4598.632812	-54.871387
4599.609375	-55.750721
4600.585938	-55.742035
4601.562500	-54.545036
4602.539062	-56.239555
4603.515625	-56.287483
4604.492188	-56.490093
4605.468750	-56.079266
4606.445312	-55.151817
4607.421875	-57.512726
4608.398438	-55.741913
4609.375000	-55.218788
4610.351562	-56.043846
4611.328125	-56.440510
4612.304688	-56.318718
4613.281250	-55.858273
4614.257812	-56.082138
4615.234375	-55.035526
4616.210938	-56.132023
4617.187500	-56.651749
4618.164062	-56.485413
4619.140625	-56.610340
4620.117188	-55.459312
4621.093750	-55.406200
4622.070312	-56.493996
4623.046875	-55.722260
4624.023438	-56.032619
4625.000000	-56.182869
4625.976562	-56.746422
4626.953125	-56.366566
4627.929688	-56.501915
4628.906250	-55.548119
4629.882812	-56.146358
4630.859375	-57.803055
4631.835938	-57.331486
4632.812500	-56.753040
4633.789062	-57.203327
4634.765625	-56.371651
4635.742188	-56.677395
4636.718750	-56.625740
4637.695312	-56.925713
4638.671875	-56.799179
4639.648438	-56.024414
4640.625000	-56.181568
4641.601562	-57.602028
4642.578125	-56.992661
4643.554688	-55.523403
4644.531250	-55.638947
4645.507812	-55.986198
4646.484375	-56.356014
4647.460938	-56.921288
4648.437500	-55.922546
4649.414062	-56.067417
4650.390625	-56.073704
4651.367188	-55.966747
4652.343750	-55.753571
4653.320312	-55.534222
4654.296875	-55.763565
4655.273438	-57.175129
4656.250000	-56.665771
4657.226562	-56.780544
4658.203125	-56.461910
4659.179688	-55.629814
4660.156250	-56.819244
4661.132812	-56.827290
4662.109375	-56.744240
4663.085938	-56.571678
4664.062500	-57.172504
4665.039062	-56.397503
4666.015625	-56.306999
4666.992188	-55.711464
4667.968750	-55.687263
4668.945312	-57.233810
4669.921875	-57.469898
4670.898438	-56.708099
4671.875000	-56.347843
4672.851562	-57.368393
4673.828125	-55.225506
4674.804688	-56.223507
4675.781250	-55.294537
4676.757812	-55.642391
4677.734375	-55.822807
4678.710938	-55.780430
4679.687500	-55.336849
4680.664062	-56.400307
4681.640625	-55.998081
4682.617188	-55.850735
4683.593750	-57.170753
4684.570312	-55.125069
4685.546875	-55.408066
4686.523438	-55.150112
4687.500000	-55.234344
4688.476562	-54.375401
4689.453125	-55.092472
4690.429688	-55.788399
4691.406250	-54.680225
4692.382812	-55.640820
4693.359375	-54.202972
4694.335938	-55.269802
4695.312500	-55.627319
4696.289062	-56.512051
4697.265625	-54.849705
4698.242188	-53.936520
4699.218750	-54.303192
4700.195312	-54.298653
4701.171875	-54.928318
4702.148438	-55.407593
4703.125000	-56.118374
4704.101562	-53.036541
4705.078125	-53.857483
4706.054688	-53.467201
4707.031250	-53.094418
4708.007812	-54.725155
4708.984375	-53.568119
4709.960938	-53.440113
4710.937500	-54.954754
4711.914062	-54.529259
4712.890625	-54.389545
4713.867188	-53.818954
4714.843750	-52.688816
4715.820312	-52.670990
4716.796875	-52.225494
4717.773438	-52.370724
4718.750000	-53.358238
4719.726562	-54.417057
4720.703125	-54.337162
4721.679688	-52.941196
4722.656250	-54.720428
4723.632812	-52.775745
4724.609375	-52.559509
4725.585938	-52.075249
4726.562500	-52.542622
4727.539062	-52.141079
4728.515625	-51.854412
4729.492188	-52.631229
4730.468750	-53.325455
4731.445312	-52.028187
4732.421875	-51.600002
4733.398438	-50.275772
4734.375000	-50.083534
4735.351562	-51.601521
4736.328125	-51.331470
4737.304688	-51.367222
4738.281250	-50.123238
4739.257812	-49.936424
4740.234375	-51.241512
4741.210938	-50.737888
4742.187500	-50.223202
4743.164062	-50.961304
4744.140625	-50.433369
4745.117188	-51.495331
4746.093750	-49.336254
4747.070312	-49.227451
4748.046875	-48.907795
4749.023438	-48.112839
4750.000000	-47.753899
4750.976562	-50.076885
4751.953125	-48.898087
4752.929688	-48.229061
4753.906250	-48.226887
4754.882812	-49.412201
4755.859375	-49.152672
4756.835938	-48.168457
4757.812500	-48.836441
4758.789062	-48.518135
4759.765625	-48.731457
4760.742188	-48.643612
4761.718750	-48.688011
4762.695312	-47.431854
4763.671875	-48.016151
4764.648438	-48.003113
4765.625000	-47.780640
4766.601562	-46.262093
4767.578125	-46.875725
4768.554688	-47.260811
4769.531250	-46.320980
4770.507812	-46.822166
4771.484375	-46.958462
4772.460938	-47.423428
4773.437500	-46.593262
4774.414062	-47.031624
4775.390625	-47.595516
4776.367188	-45.742268
4777.343750	-46.219128
4778.320312	-46.896919
4779.296875	-44.529404
4780.273438	-46.731873
4781.250000	-47.732475
4782.226562	-46.848080
4783.203125	-47.542007
4784.179688	-48.429607
4785.156250	-47.649288
4786.132812	-47.377201
4787.109375	-46.657417
4788.085938	-47.572479
4789.062500	-47.491600
4790.039062	-48.761238
4791.015625	-48.340099
4791.992188	-48.910126
4792.968750	-48.391560
4793.945312	-47.683540
4794.921875	-47.706139
4795.898438	-47.240829
4796.875000	-48.074963
4797.851562	-47.898842
4798.828125	-46.909367
4799.804688	-49.379860
4800.781250	-48.850285
4801.757812	-48.995029
4802.734375	-49.152996
4803.710938	-49.308891
4804.687500	-49.340801
4805.664062	-49.678074
4806.640625	-49.187218
4807.617188	-48.347240
4808.593750	-49.399712
4809.570312	-49.827412
4810.546875	-49.732456
4811.523438	-50.280697
4812.500000	-51.197842
4813.476562	-50.161804
4814.453125	-50.903942
4815.429688	-50.039474
4816.406250	-52.381763
4817.382812	-51.448338
4818.359375	-51.909882
4819.335938	-50.743092
4820.312500	-51.028709
4821.289062	-50.965240
4822.265625	-51.150272
4823.242188	-52.659657
4824.218750	-51.908295
4825.195312	-52.277218
4826.171875	-51.720810
4827.148438	-51.539650
4828.125000	-52.666458
4829.101562	-52.048721
4830.078125	-51.923832
4831.054688	-52.767895
4832.031250	-52.977783
4833.007812	-52.597324
4833.984375	-52.169460
4834.960938	-53.456978
4835.937500	-52.717941
4836.914062	-51.706825
4837.890625	-52.802483
4838.867188	-53.118168
4839.843750	-52.287144
4840.820312	-53.160480
4841.796875	-52.565025
4842.773438	-53.886143
4843.750000	-54.080288
4844.726562	-53.553978
4845.703125	-54.080841
4846.679688	-55.728436
4847.656250	-53.574642
4848.632812	-53.609070
4849.609375	-52.765297
4850.585938	-53.807953
4851.562500	-53.947182
4852.539062	-53.362267
4853.515625	-54.372765
4854.492188	-53.746181
4855.468750	-53.768631
4856.445312	-53.386387
4857.421875	-54.356297
4858.398438	-53.760757
4859.375000	-52.818821
4860.351562	-54.764736
4861.328125	-53.596497
4862.304688	-55.510361
4863.281250	-55.613770
4864.257812	-55.235382
4865.234375	-54.557526
4866.210938	-55.700676
4867.187500	-55.029747
4868.164062	-54.983376
4869.140625	-54.630035
4870.117188	-55.242844
4871.093750	-53.872120
4872.070312	-55.249985
4873.046875	-55.548447
4874.023438	-55.278034
4875.000000	-56.147102
4875.976562	-55.706711
4876.953125	-55.001011
4877.929688	-54.567661
4878.906250	-54.127144
4879.882812	-55.652092
4880.859375	-55.208847
4881.835938	-55.367229
4882.812500	-55.932697
4883.789062	-55.754147
4884.765625	-55.362747
4885.742188	-56.386921
4886.718750	-55.371456
4887.695312	-54.934566
4888.671875	-55.728523
4889.648438	-55.252930
4890.625000	-55.628983
4891.601562	-55.475609
4892.578125	-54.271435
4893.554688	-56.156086
4894.531250	-57.129040
4895.507812	-55.878819
4896.484375	-55.771557
4897.460938	-56.047607
4898.437500	-55.412434
4899.414062	-54.802200
4900.390625	-56.599480
4901.367188	-56.577770
4902.343750	-54.573555
4903.320312	-54.554863
4904.296875	-55.238464
4905.273438	-55.210182
4906.250000	-55.933121
4907.226562	-55.779415
4908.203125	-56.081535
4909.179688	-56.072548
4910.156250	-56.133018
4911.132812	-55.452114
4912.109375	-55.164192
4913.085938	-55.061199
4914.062500	-55.059593
4915.039062	-56.356857
4916.015625	-56.052437
4916.992188	-55.186352
4917.968750	-55.848595
4918.945312	-55.522697
4919.921875	-54.941830
4920.898438	-56.456726
4921.875000	-56.605164
4922.851562	-55.443401
4923.828125	-55.259632
4924.804688	-55.412521
4925.781250	-55.346252
4926.757812	-56.121174
4927.734375	-54.355999
4928.710938	-56.080166
4929.687500	-55.318657
4930.664062	-55.576244
4931.640625	-55.773880
4932.617188	-55.578819
4933.593750	-54.059376
4934.570312	-55.285191
4935.546875	-55.925358
4936.523438	-56.229050
4937.500000	-55.619339
4938.476562	-55.721436
4939.453125	-54.424126
4940.429688	-54.389816
4941.406250	-55.408550
4942.382812	-54.209431
4943.359375	-54.308746
4944.335938	-55.022869
4945.312500	-55.279499
4946.289062	-54.093319
4947.265625	-54.629822
4948.242188	-54.119511
4949.218750	-54.587193
4950.195312	-54.311779
4951.171875	-54.553989
4952.148438	-54.272987
4953.125000	-53.607834
4954.101562	-53.948574
4955.078125	-54.438904
4956.054688	-54.284603
4957.031250	-52.844868
4958.007812	-53.041672
4958.984375	-53.628784
4959.960938	-54.588108
4960.937500	-54.124489
4961.914062	-54.957428
4962.890625	-53.371250
4963.867188	-53.576740
4964.843750	-53.057667
4965.820312	-54.378387
4966.796875	-53.782974
4967.773438	-52.831867
4968.750000	-53.167950
4969.726562	-53.447189
4970.703125	-52.785980
4971.679688	-55.233570
4972.656250	-51.748566
4973.632812	-53.248932
4974.609375	-53.916950
4975.585938	-52.692173
4976.562500	-53.251858
4977.539062	-52.509609
4978.515625	-53.379356
4979.492188	-52.231041
4980.468750	-52.220791
4981.445312	-53.117638
4982.421875	-52.169292
4983.398438	-52.644043
4984.375000	-51.966091
4985.351562	-51.268841
4986.328125	-51.587662
4987.304688	-51.265636
4988.281250	-50.378044
4989.257812	-50.725555
4990.234375	-50.528229
4991.210938	-50.015629
4992.187500	-51.183178
4993.164062	-51.707848
4994.140625	-52.044933
4995.117188	-51.428406
4996.093750	-50.921055
4997.070312	-50.631573
4998.046875	-49.404751
4999.023438	-51.252789
5000.000000	-49.533051
5000.976562	-49.801346
5001.953125	-49.448288
5002.929688	-49.258171
5003.906250	-50.897129
5004.882812	-49.667912
5005.859375	-50.655605
5006.835938	-49.632736
5007.812500	-49.429169
5008.789062	-49.097610
5009.765625	-49.353725
5010.742188	-48.565540
5011.718750	-48.768936
5012.695312	-49.053196
5013.671875	-48.833702
5014.648438	-49.188911
5015.625000	-48.572468
5016.601562	-47.826183
5017.578125	-48.524452
5018.554688	-48.912338
5019.531250	-47.601009
5020.507812	-47.343662
5021.484375	-48.893921
5022.460938	-48.393574
5023.437500	-48.603142
5024.414062	-47.015633
5025.390625	-47.718590
5026.367188	-48.927547
5027.343750	-48.512337
5028.320312	-46.398472
5029.296875	-47.451027
5030.273438	-47.432484
5031.250000	-48.021919
5032.226562	-46.967216
5033.203125	-46.479237
5034.179688	-45.636223
5035.156250	-45.901127
5036.132812	-47.989723
5037.109375	-46.136074
5038.085938	-47.490307
5039.062500	-45.890564
5040.039062	-46.883194
5041.015625	-46.615795
5041.992188	-46.659954
5042.968750	-45.720875
5043.945312	-47.170322
5044.921875	-46.354618
5045.898438	-46.447716
5046.875000	-46.317318
5047.851562	-47.261791
5048.828125	-47.065025
5049.804688	-47.673176
5050.781250	-46.583138
5051.757812	-46.646370
5052.734375	-47.012497
5053.710938	-46.725357
5054.687500	-47.509712
5055.664062	-47.546547
5056.640625	-47.287971
5057.617188	-48.379200
5058.593750	-47.516922
5059.570312	-49.034939
5060.546875	-47.496651
5061.523438	-48.159046
5062.500000	-49.630009
5063.476562	-48.286247
5064.453125	-49.615139
5065.429688	-49.399166
5066.406250	-48.821285
5067.382812	-49.361279
5068.359375	-49.536785
5069.335938	-49.332706
5070.312500	-48.856667
5071.289062	-48.850037
5072.265625	-49.965649
5073.242188	-50.230713
5074.218750	-48.881756
5075.195312	-50.194733
5076.171875	-49.687599
5077.148438	-50.974052
5078.125000	-49.912182
5079.101562	-50.460510
5080.078125	-48.806015
5081.054688	-51.183914
5082.031250	-50.235706
5083.007812	-51.696735
5083.984375	-50.225033
5084.960938	-50.536701
5085.937500	-51.395676
5086.914062	-50.475246
5087.890625	-51.164242
5088.867188	-50.992283
5089.843750	-51.145916
5090.820312	-50.994808
5091.796875	-51.142689
5092.773438	-51.458534
5093.750000	-52.257927
5094.726562	-51.875732
5095.703125	-52.518551
5096.679688	-52.577019
5097.656250	-52.931858
5098.632812	-52.551189
5099.609375	-51.926964
5100.585938	-53.619911
5101.562500	-53.033871
5102.539062	-52.460629
5103.515625	-51.445705
5104.492188	-51.994701
5105.468750	-52.205505
5106.445312	-52.643078
5107.421875	-53.821602
5108.398438	-52.892113
5109.375000	-52.104149
5110.351562	-53.147774
5111.328125	-52.245998
5112.304688	-52.411903
5113.281250	-52.340126
5114.257812	-53.151829
5115.234375	-53.660103
5116.210938	-53.733837
5117.187500	-52.896099
5118.164062	-53.191212
5119.140625	-55.153206
5120.117188	-54.432907
5121.093750	-53.477345
5122.070312	-53.802124
5123.046875	-53.842926
5124.023438	-54.693623
5125.000000	-52.881817
5125.976562	-54.340721
5126.953125	-55.081524
5127.929688	-53.550430
5128.906250	-53.725880
5129.882812	-54.408165
5130.859375	-54.542614
5131.835938	-54.118118
5132.812500	-54.928032
5133.789062	-53.006401
5134.765625	-54.708202
5135.742188	-54.876068
5136.718750	-53.701431
5137.695312	-54.190388
5138.671875	-53.980919
5139.648438	-55.005531
5140.625000	-54.137627
5141.601562	-53.996555
5142.578125	-54.522339
5143.554688	-55.943714
5144.531250	-54.884106
5145.507812	-53.923126
5146.484375	-54.505665
5147.460938	-53.040390
5148.437500	-53.950146
5149.414062	-55.439068
5150.390625	-55.069138
5151.367188	-54.667484
5152.343750	-55.147320
5153.320312	-55.010757
5154.296875	-53.562046
5155.273438	-53.699825
5156.250000	-53.488819
5157.226562	-55.559822
5158.203125	-56.120079
5159.179688	-54.491467
5160.156250	-54.540874
5161.132812	-54.666294
5162.109375	-54.222755
5163.085938	-53.266510
5164.062500	-52.982571
5165.039062	-53.900852
5166.015625	-54.547054
5166.992188	-53.120804
5167.968750	-53.457001
5168.945312	-54.074310
5169.921875	-54.568871
5170.898438	-55.019180
5171.875000	-53.706509
5172.851562	-53.311691
5173.828125	-55.085571
5174.804688	-54.318714
5175.781250	-55.829319
5176.757812	-56.582573
5177.734375	-54.664127
5178.710938	-53.699402
5179.687500	-55.316700
5180.664062	-53.675400
5181.640625	-53.860138
5182.617188	-55.140808
5183.593750	-54.895985
5184.570312	-54.631454
5185.546875	-54.013142
5186.523438	-53.389141
5187.500000	-53.152977
5188.476562	-55.032887
5189.453125	-53.627438
5190.429688	-55.043945
5191.406250	-53.523083
5192.382812	-52.816238
5193.359375	-54.433464
5194.335938	-54.843998
5195.312500	-53.850998
5196.289062	-53.544529
5197.265625	-54.013760
5198.242188	-54.264091
5199.218750	-52.895321
5200.195312	-52.544628
5201.171875	-53.508846
5202.148438	-53.601677
5203.125000	-54.436455
5204.101562	-53.917999
5205.078125	-53.208031
5206.054688	-53.761112
5207.031250	-53.293240
5208.007812	-53.395260
5208.984375	-52.408447
5209.960938	-53.762505
5210.937500	-52.914539
5211.914062	-53.993446
5212.890625	-54.060658
5213.867188	-52.515274
5214.843750	-53.261543
5215.820312	-53.214981
5216.796875	-53.133263
5217.773438	-54.002399
5218.750000	-52.646744
5219.726562	-52.950302
5220.703125	-52.954323
5221.679688	-51.731453
5222.656250	-52.607742
5223.632812	-52.520512
5224.609375	-50.936073
5225.585938	-52.486462
5226.562500	-53.179428
5227.539062	-51.048035
5228.515625	-51.105213
5229.492188	-52.698410
5230.468750	-52.629173
5231.445312	-51.947365
5232.421875	-51.993958
5233.398438	-51.727890
5234.375000	-52.763390
5235.351562	-50.622112
5236.328125	-49.623604
5237.304688	-50.529400
5238.281250	-52.838646
5239.257812	-51.673290
5240.234375	-50.755535
5241.210938	-51.637798
5242.187500	-50.294739
5243.164062	-51.671558
5244.140625	-51.599052
5245.117188	-51.488106
5246.093750	-50.921898
5247.070312	-51.287487
5248.046875	-50.477283
5249.023438	-51.446651
5250.000000	-50.282162
5250.976562	-50.714985
5251.953125	-51.049942
5252.929688	-49.702915
5253.906250	-51.293087
5254.882812	-50.100842
5255.859375	-48.976028
5256.835938	-49.301975
5257.812500	-49.959705
5258.789062	-49.221428
5259.765625	-49.137733
5260.742188	-48.962093
5261.718750	-49.104923
5262.695312	-49.550819
5263.671875	-48.938721
5264.648438	-50.204845
5265.625000	-49.880802
5266.601562	-47.786121
5267.578125	-46.599564
5268.554688	-49.750927
5269.531250	-48.401596
5270.507812	-47.373348
5271.484375	-48.738770
5272.460938	-47.563675
5273.437500	-49.672253
5274.414062	-48.488014
5275.390625	-47.096973
5276.367188	-48.150658
5277.343750	-48.704628
5278.320312	-47.812134
5279.296875	-47.935211
5280.273438	-48.047161
5281.250000	-46.947048
5282.226562	-47.607719
5283.203125	-48.047894
5284.179688	-46.759647
5285.156250	-46.161114
5286.132812	-46.536304
5287.109375	-47.414333
5288.085938	-46.604431
5289.062500	-46.887260
5290.039062	-45.956764
5291.015625	-46.456055
5291.992188	-46.077042
5292.968750	-46.430435
5293.945312	-46.353848
5294.921875	-46.646694
5295.898438	-46.659821
5296.875000	-46.375172
5297.851562	-45.956135
5298.828125	-46.684311
5299.804688	-46.511230
5300.781250	-46.823185
5301.757812	-46.244019
5302.734375	-45.314938
5303.710938	-46.969807
5304.687500	-46.945946
5305.664062	-46.743492
5306.640625	-46.348064
5307.617188	-45.957249
5308.593750	-46.998379
5309.570312	-45.663002
5310.546875	-45.358040
5311.523438	-46.992317
5312.500000	-48.888824
5313.476562	-47.387653
5314.453125	-47.462051
5315.429688	-47.781837
5316.406250	-47.601555
5317.382812	-47.228153
5318.359375	-47.505157
5319.335938	-47.004482
5320.312500	-47.721645
5321.289062	-45.830704
5322.265625	-47.559093
5323.242188	-49.032486
5324.218750	-48.134975
5325.195312	-47.212612
5326.171875	-46.687450
5327.148438	-47.978695
5328.125000	-48.503372
5329.101562	-47.148323
5330.078125	-48.699043
5331.054688	-48.977707
5332.031250	-48.092308
5333.007812	-48.747967
5333.984375	-49.182430
5334.960938	-48.716732
5335.937500	-48.677826
5336.914062	-48.090759
5337.890625	-49.153786
5338.867188	-49.408089
5339.843750	-49.891705
5340.820312	-49.226475
5341.796875	-49.436172
5342.773438	-49.767475
5343.750000	-49.606762
5344.726562	-50.324875
5345.703125	-50.051456
5346.679688	-50.300072
5347.656250	-50.941872
5348.632812	-49.792854
5349.609375	-50.681236
5350.585938	-48.633308
5351.562500	-50.126816
5352.539062	-50.889114
5353.515625	-49.302902
5354.492188	-49.589096
5355.468750	-50.076378
5356.445312	-50.269520
5357.421875	-51.912422
5358.398438	-50.540462
5359.375000	-50.501099
5360.351562	-49.730881
5361.328125	-50.042477
5362.304688	-50.894981
5363.281250	-50.219200
5364.257812	-50.700855
5365.234375	-51.113174
5366.210938	-50.565365
5367.187500	-50.433647
5368.164062	-51.224712
5369.140625	-50.684982
5370.117188	-50.649590
5371.093750	-50.395416
5372.070312	-51.868313
5373.046875	-52.071766
5374.023438	-52.403812
5375.000000	-51.645260
5375.976562	-50.826588
5376.953125	-51.636364
5377.929688	-51.307304
5378.906250	-51.505623
5379.882812	-51.647911
5380.859375	-49.975113
5381.835938	-51.774101
5382.812500	-51.543449
5383.789062	-52.124290
5384.765625	-51.726841
5385.742188	-52.320713
5386.718750	-52.385677
5387.695312	-52.605755
5388.671875	-52.138321
5389.648438	-51.869858
5390.625000	-52.810925
5391.601562	-51.351456
5392.578125	-51.795105
5393.554688	-53.066135
5394.531250	-52.581787
5395.507812	-51.784035
5396.484375	-51.838882
5397.460938	-52.935116
5398.437500	-52.723495
5399.414062	-51.685387
5400.390625	-51.645157
5401.367188	-52.596821
5402.343750	-52.458874
5403.320312	-52.864300
5404.296875	-52.656384
5405.273438	-52.917973
5406.250000	-51.580341
5407.226562	-52.510822
5408.203125	-53.123947
5409.179688	-53.083157
5410.156250	-52.531841
5411.132812	-53.157646
5412.109375	-51.720070
5413.085938	-52.221260
5414.062500	-52.045040
5415.039062	-52.364071
5416.015625	-52.103661
5416.992188	-51.696136
5417.968750	-52.489788
5418.945312	-52.603325
5419.921875	-53.632874
5420.898438	-52.690220
5421.875000	-52.616920
5422.851562	-52.580067
5423.828125	-53.108208
5424.804688	-52.344082
5425.781250	-51.932545
5426.757812	-51.967831
5427.734375	-52.817280
5428.710938	-52.623863
5429.687500	-53.269733
5430.664062	-53.664963
5431.640625	-53.008438
5432.617188	-52.450916
5433.593750	-52.930412
5434.570312	-52.022003
5435.546875	-52.959618
5436.523438	-52.341713
5437.500000	-51.963638
5438.476562	-53.454922
5439.453125	-51.690895
5440.429688	-51.067268
5441.406250	-52.359390
5442.382812	-51.851547
5443.359375	-52.958988
5444.335938	-51.900398
5445.312500	-51.316998
5446.289062	-52.587013
5447.265625	-51.697990
5448.242188	-51.481991
5449.218750	-52.965218
5450.195312	-52.274223
5451.171875	-51.889534
5452.148438	-52.473282
5453.125000	-52.129665
5454.101562	-53.574688
5455.078125	-52.755909
5456.054688	-53.572430
5457.031250	-51.420994
5458.007812	-50.784969
5458.984375	-52.513214
5459.960938	-51.828365
5460.937500	-52.102558
5461.914062	-51.926865
5462.890625	-50.557480
5463.867188	-51.554436
5464.843750	-52.290440
5465.820312	-51.250103
5466.796875	-50.670235
5467.773438	-51.916656
5468.750000	-50.940208
5469.726562	-51.654423
5470.703125	-50.628635
5471.679688	-51.112503
5472.656250	-50.859520
5473.632812	-51.148323
5474.609375	-51.746487
5475.585938	-51.108772
5476.562500	-51.517582
5477.539062	-50.644676
5478.515625	-49.891529
5479.492188	-50.623966
5480.468750	-50.920193
5481.445312	-50.099510
5482.421875	-50.618526
5483.398438	-51.374008
5484.375000	-50.425571
5485.351562	-49.972118
5486.328125	-50.444305
5487.304688	-50.410477
5488.281250	-50.507118
5489.257812	-51.165752
5490.234375	-50.731598
5491.210938	-49.675911
5492.187500	-50.107433
5493.164062	-48.999725
5494.140625	-49.725063
5495.117188	-50.329796
5496.093750	-50.870079
5497.070312	-50.383049
5498.046875	-49.281231
5499.023438	-48.258453
5500.000000	-49.537270
5500.976562	-49.400658
5501.953125	-49.078972
5502.929688	-50.444061
5503.906250	-49.506416
5504.882812	-50.353806
5505.859375	-49.389874
5506.835938	-49.065399
5507.812500	-49.515736
5508.789062	-49.486359
5509.765625	-49.238369
5510.742188	-48.966602
5511.718750	-48.544437
5512.695312	-48.848450
5513.671875	-49.535934
5514.648438	-48.919224
5515.625000	-48.046295
5516.601562	-47.326923
5517.578125	-49.277767
5518.554688	-48.270710
5519.531250	-47.978767
5520.507812	-48.980179
5521.484375	-47.845882
5522.460938	-48.318489
5523.437500	-47.406418
5524.414062	-47.330170
5525.390625	-47.912678
5526.367188	-46.860214
5527.343750	-47.203739
5528.320312	-47.531189
5529.296875	-47.132126
5530.273438	-48.456024
5531.250000	-48.181324
5532.226562	-47.761326
5533.203125	-48.672215
5534.179688	-47.300621
5535.156250	-47.500679
5536.132812	-47.479675
5537.109375	-47.885113
5538.085938	-46.907875
5539.062500	-47.682812
5540.039062	-45.983418
5541.015625	-47.246468
5541.992188	-46.931347
5542.968750	-47.233341
5543.945312	-46.812195
5544.921875	-47.416187
5545.898438	-47.112873
5546.875000	-48.939472
5547.851562	-46.770084
5548.828125	-46.288258
5549.804688	-46.904602
5550.781250	-46.405216
5551.757812	-46.614780
5552.734375	-47.259621
5553.710938	-47.280712
5554.687500	-45.716805
5555.664062	-46.576675
5556.640625	-47.102341
5557.617188	-46.409832
5558.593750	-45.882240
5559.570312	-47.955032
5560.546875	-46.677795
5561.523438	-46.757687
5562.500000	-47.645138
5563.476562	-47.697933
5564.453125	-46.158947
5565.429688	-46.506626
5566.406250	-46.847824
5567.382812	-46.744354
5568.359375	-46.733376
5569.335938	-46.179565
5570.312500	-49.083160
5571.289062	-47.333149
5572.265625	-47.658257
5573.242188	-47.822227
5574.218750	-46.566311
5575.195312	-45.797520
5576.171875	-48.168045
5577.148438	-48.309586
5578.125000	-48.000839
5579.101562	-47.142788
5580.078125	-46.971718
5581.054688	-47.051540
5582.031250	-48.024300
5583.007812	-47.471855
5583.984375	-46.862179
5584.960938	-47.251968
5585.937500	-48.024475
5586.914062	-46.999352
5587.890625	-47.431118
5588.867188	-48.307701
5589.843750	-48.624683
5590.820312	-46.754303
5591.796875	-47.890915
5592.773438	-47.729069
5593.750000	-48.395149
5594.726562	-46.678349
5595.703125	-48.581989
5596.679688	-48.752468
5597.656250	-47.782066
5598.632812	-48.915794
5599.609375	-47.866932
5600.585938	-47.459419
5601.562500	-47.430553
5602.539062	-49.306812
5603.515625	-50.142960
5604.492188	-49.314957
5605.468750	-47.714561
5606.445312	-48.505875
5607.421875	-48.671474
5608.398438	-47.493217
5609.375000	-48.058540
5610.351562	-48.777157
5611.328125	-48.357414
5612.304688	-49.492165
5613.281250	-48.678909
5614.257812	-47.548805
5615.234375	-47.543175
5616.210938	-48.428783
5617.187500	-49.983074
5618.164062	-49.523087
5619.140625	-49.007034
5620.117188	-49.012661
5621.093750	-49.726311
5622.070312	-50.171177
5623.046875	-48.868225
5624.023438	-48.006523
5625.000000	-50.584423
5625.976562	-49.352688
5626.953125	-48.496750
5627.929688	-48.961052
5628.906250	-49.202770
5629.882812	-49.954865
5630.859375	-49.500511
5631.835938	-49.358963
5632.812500	-50.992405
5633.789062	-51.045261
5634.765625	-49.402760
5635.742188	-49.704258
5636.718750	-49.756794
5637.695312	-50.903198
5638.671875	-50.479843
5639.648438	-48.840218
5640.625000	-49.000496
5641.601562	-49.140728
5642.578125	-49.356693
5643.554688	-49.666901
5644.531250	-49.104507
5645.507812	-48.934216
5646.484375	-50.071785
5647.460938	-50.939171
5648.437500	-50.230614
5649.414062	-50.139854
5650.390625	-49.920105
5651.367188	-49.993668
5652.343750	-49.687504
5653.320312	-49.363705
5654.296875	-49.318443
5655.273438	-49.860355
5656.250000	-49.896240
5657.226562	-48.654236
5658.203125	-49.926556
5659.179688	-49.490036
5660.156250	-49.735470
5661.132812	-51.031330
5662.109375	-51.101128
5663.085938	-50.285103
5664.062500	-50.159050
5665.039062	-50.948021
5666.015625	-50.371567
5666.992188	-50.616249
5667.968750	-50.031845
5668.945312	-50.345718
5669.921875	-49.427444
5670.898438	-49.975063
5671.875000	-52.010937
5672.851562	-51.403561
5673.828125	-50.579071
5674.804688	-50.581215
5675.781250	-50.199833
5676.757812	-50.209435
5677.734375	-51.083431
5678.710938	-49.061993
5679.687500	-51.438324
5680.664062	-51.006817
5681.640625	-50.662998
5682.617188	-49.949177
5683.593750	-49.659531
5684.570312	-50.283657
5685.546875	-49.332180
5686.523438	-50.159569
5687.500000	-50.227856
5688.476562	-51.599129
5689.453125	-49.639881
5690.429688	-49.924915
5691.406250	-50.830147
5692.382812	-50.273823
5693.359375	-51.674961
5694.335938	-49.680145
5695.312500	-49.801212
5696.289062	-50.342030
5697.265625	-50.138336
5698.242188	-50.605152
5699.218750	-49.442375
5700.195312	-48.980812
5701.171875	-49.640644
5702.148438	-50.509193
5703.125000	-49.993969
5704.101562	-50.393452
5705.078125	-50.888664
5706.054688	-51.322651
5707.031250	-50.439987
5708.007812	-49.369232
5708.984375	-49.824265
5709.960938	-49.779015
5710.937500	-49.183395
5711.914062	-50.833496
5712.890625	-49.383476
5713.867188	-49.804661
5714.843750	-48.580299
5715.820312	-49.409039
5716.796875	-49.118584
5717.773438	-50.057438
5718.750000	-49.716522
5719.726562	-49.909863
5720.703125	-52.029087
5721.679688	-49.014435
5722.656250	-49.093231
5723.632812	-49.106773
5724.609375	-49.548187
5725.585938	-48.721378
5726.562500	-49.798439
5727.539062	-49.911663
5728.515625	-50.579586
5729.492188	-49.428196
5730.468750	-49.347481
5731.445312	-49.135464
5732.421875	-49.986755
5733.398438	-48.951031
5734.375000	-50.130249
5735.351562	-50.955624
5736.328125	-49.344540
5737.304688	-49.197880
5738.281250	-50.917336
5739.257812	-49.720524
5740.234375	-48.153904
5741.210938	-49.362614
5742.187500	-50.601303
5743.164062	-48.758194
5744.140625	-47.737953
5745.117188	-50.146339
5746.093750	-48.256851
5747.070312	-49.790421
5748.046875	-48.743664
5749.023438	-48.760326
5750.000000	-47.943932
5750.976562	-49.133469
5751.953125	-49.637486
5752.929688	-49.389126
5753.906250	-50.637096
5754.882812	-48.399494
5755.859375	-48.735790
5756.835938	-48.326984
5757.812500	-48.760292
5758.789062	-48.915443
5759.765625	-48.319279
5760.742188	-50.003372
5761.718750	-48.349102
5762.695312	-49.117573
5763.671875	-48.404575
5764.648438	-48.952095
5765.625000	-48.816223
5766.601562	-49.791779
5767.578125	-49.225433
5768.554688	-48.358047
5769.531250	-48.891369
5770.507812	-48.587845
5771.484375	-51.115273
5772.460938	-49.118973
5773.437500	-49.688267
5774.414062	-48.568680
5775.390625	-49.825912
5776.367188	-49.410091
5777.343750	-48.908745
5778.320312	-49.425709
5779.296875	-50.067200
5780.273438	-49.599903
5781.250000	-48.908401
5782.226562	-48.729225
5783.203125	-47.824131
5784.179688	-47.217926
5785.156250	-48.090366
5786.132812	-47.954014
5787.109375	-48.373844
5788.085938	-48.887932
5789.062500	-48.099720
5790.039062	-48.617157
5791.015625	-48.515060
5791.992188	-48.259529
5792.968750	-47.889221
5793.945312	-48.461693
5794.921875	-48.820728
5795.898438	-49.133045
5796.875000	-48.357967
5797.851562	-47.914478
5798.828125	-48.869671
5799.804688	-49.156281
5800.781250	-47.723595
5801.757812	-48.864887
5802.734375	-48.358677
5803.710938	-47.623867
5804.687500	-49.104713
5805.664062	-49.062420
5806.640625	-47.791988
5807.617188	-49.358898
5808.593750	-48.133278
5809.570312	-48.257824
5810.546875	-49.074387
5811.523438	-48.466362
5812.500000	-48.477516
5813.476562	-48.154633
5814.453125	-48.222553
5815.429688	-47.948307
5816.406250	-49.539555
5817.382812	-47.529327
5818.359375	-47.416870
5819.335938	-48.711815
5820.312500	-47.972195
5821.289062	-49.762367
5822.265625	-49.674873
5823.242188	-48.579952
5824.218750	-47.353722
5825.195312	-48.797195
5826.171875	-47.953739
5827.148438	-47.805180
5828.125000	-47.947903
5829.101562	-48.859600
5830.078125	-48.100018
5831.054688	-46.672455
5832.031250	-48.358429
5833.007812	-48.534210
5833.984375	-47.767090
5834.960938	-48.976486
5835.937500	-49.254944
5836.914062	-49.094662
5837.890625	-48.676449
5838.867188	-47.281246
5839.843750	-47.683365
5840.820312	-48.395618
5841.796875	-47.353333
5842.773438	-48.593464
5843.750000	-47.110027
5844.726562	-46.283386
5845.703125	-49.089127
5846.679688	-48.184849
5847.656250	-48.818470
5848.632812	-48.361603
5849.609375	-47.631134
5850.585938	-48.234787
5851.562500	-48.965542
5852.539062	-48.641193
5853.515625	-48.424908
5854.492188	-46.168346
5855.468750	-48.185081
5856.445312	-48.775467
5857.421875	-50.090343
5858.398438	-48.053349
5859.375000	-49.040939
5860.351562	-47.692551
5861.328125	-48.680771
5862.304688	-48.349258
5863.281250	-46.968971
5864.257812	-48.879074
5865.234375	-47.535027
5866.210938	-48.257385
5867.187500	-48.702637
5868.164062	-47.224190
5869.140625	-48.516949
5870.117188	-47.314072
5871.093750	-50.020367
5872.070312	-48.212967
5873.046875	-49.209797
5874.023438	-49.840717
5875.000000	-48.471352
5875.976562	-48.123398
5876.953125	-48.955822
5877.929688	-47.430065
5878.906250	-48.257519
5879.882812	-48.016125
5880.859375	-48.001778
5881.835938	-49.860821
5882.812500	-48.074520
5883.789062	-47.132286
5884.765625	-48.706173
5885.742188	-47.890503
5886.718750	-47.782356
5887.695312	-47.934647
5888.671875	-48.368637
5889.648438	-47.804424
5890.625000	-48.450134
5891.601562	-48.798389
5892.578125	-47.761070
5893.554688	-48.823185
5894.531250	-49.155334
5895.507812	-47.802536
5896.484375	-48.175625
5897.460938	-49.444450
5898.437500	-49.192039
5899.414062	-47.126266
5900.390625	-48.860657
5901.367188	-48.284451
5902.343750	-49.456123
5903.320312	-48.317822
5904.296875	-48.322182
5905.273438	-48.499474
5906.250000	-48.042419
5907.226562	-47.401001
5908.203125	-48.454845
5909.179688	-49.341896
5910.156250	-48.257904
5911.132812	-48.773842
5912.109375	-49.045288
5913.085938	-48.979919
5914.062500	-47.315762
5915.039062	-49.329784
5916.015625	-48.690723
5916.992188	-48.441093
5917.968750	-47.661415
5918.945312	-48.043537
5919.921875	-47.297459
5920.898438	-48.692207
5921.875000	-49.010483
5922.851562	-49.108112
5923.828125	-48.621601
5924.804688	-49.083099
5925.781250	-49.162998
5926.757812	-49.114811
5927.734375	-48.898510
5928.710938	-49.445759
5929.687500	-49.061340
5930.664062	-49.577293
5931.640625	-49.248524
5932.617188	-48.742031
5933.593750	-49.714706
5934.570312	-48.592659
5935.546875	-49.003094
5936.523438	-48.851154
5937.500000	-47.853771
5938.476562	-48.920925
5939.453125	-49.339581
5940.429688	-46.623306
5941.406250	-48.538708
5942.382812	-49.048981
5943.359375	-48.885529
5944.335938	-48.577377
5945.312500	-48.803543
5946.289062	-48.702644
5947.265625	-48.941666
5948.242188	-49.391171
5949.218750	-48.520081
5950.195312	-48.683266
5951.171875	-49.046040
5952.148438	-48.689568
5953.125000	-49.894302
5954.101562	-48.858540
5955.078125	-48.949566
5956.054688	-48.801353
5957.031250	-48.945702
5958.007812	-49.731377
5958.984375	-50.221462
5959.960938	-48.143463
5960.937500	-49.588409
5961.914062	-49.413067
5962.890625	-49.352737
5963.867188	-49.926346
5964.843750	-50.860836
5965.820312	-50.387424
5966.796875	-48.834190
5967.773438	-49.837067
5968.750000	-50.686855
5969.726562	-49.769493
5970.703125	-50.485676
5971.679688	-50.174564
5972.656250	-49.467918
5973.632812	-50.186871
5974.609375	-49.698250
5975.585938	-49.887753
5976.562500	-51.023529
5977.539062	-49.866158
5978.515625	-50.907471
5979.492188	-50.667580
5980.468750	-51.589420
5981.445312	-50.354622
5982.421875	-49.486111
5983.398438	-50.255299
5984.375000	-50.288513
5985.351562	-50.100445
5986.328125	-49.826801
5987.304688	-51.164513
5988.281250	-49.840363
5989.257812	-50.962250
5990.234375	-51.162140
5991.210938	-50.940186
5992.187500	-50.078125
5993.164062	-50.372532
5994.140625	-50.925621
5995.117188	-52.220848
5996.093750	-50.515549
5997.070312	-50.670872
5998.046875	-51.272812
5999.023438	-52.686211
6000.000000	-51.774681
6000.976562	-51.444767
6001.953125	-50.690475
6002.929688	-49.596668
6003.906250	-51.328781
6004.882812	-52.271786
6005.859375	-52.974445
6006.835938	-50.193344
6007.812500	-51.090866
6008.789062	-50.791428
6009.765625	-51.257908
6010.742188	-51.470787
6011.718750	-51.363247
6012.695312	-49.972622
6013.671875	-52.426662
6014.648438	-52.262314
6015.625000	-50.198284
6016.601562	-50.893253
6017.578125	-51.742500
6018.554688	-51.836102
6019.531250	-50.492455
6020.507812	-51.367020
6021.484375	-50.310673
6022.460938	-51.268673
6023.437500	-52.328682
6024.414062	-51.021538
6025.390625	-53.040295
6026.367188	-51.090832
6027.343750	-51.899349
6028.320312	-51.688828
6029.296875	-51.035854
6030.273438	-52.277733
6031.250000	-52.509407
6032.226562	-50.828270
6033.203125	-51.665386
6034.179688	-51.590427
6035.156250	-51.198734
6036.132812	-51.059071
6037.109375	-52.523853
6038.085938	-52.098080
6039.062500	-51.851204
6040.039062	-51.138706
6041.015625	-51.206779
6041.992188	-50.239300
6042.968750	-50.983681
6043.945312	-51.339485
6044.921875	-50.363533
6045.898438	-51.682812
6046.875000	-51.719154
6047.851562	-51.428192
6048.828125	-51.352764
6049.804688	-50.847656
6050.781250	-50.459782
6051.757812	-51.923313
6052.734375	-51.779850
6053.710938	-51.558495
6054.687500	-52.080200
6055.664062	-51.462761
6056.640625	-52.223862
6057.617188	-50.992722
6058.593750	-50.778976
6059.570312	-51.368557
6060.546875	-51.317287
6061.523438	-49.900024
6062.500000	-50.829773
6063.476562	-52.112442
6064.453125	-50.223522
6065.429688	-50.166122
6066.406250	-51.299267
6067.382812	-51.761543
6068.359375	-50.680447
6069.335938	-51.025364
6070.312500	-50.670853
6071.289062	-51.014725
6072.265625	-51.791195
6073.242188	-52.268497
6074.218750	-50.422401
6075.195312	-52.259197
6076.171875	-51.866024
6077.148438	-50.252808
6078.125000	-50.394249
6079.101562	-50.162247
6080.078125	-51.812355
6081.054688	-50.683151
6082.031250	-50.734905
6083.007812	-49.969570
6083.984375	-50.277668
6084.960938	-50.190971
6085.937500	-51.883411
6086.914062	-50.678360
6087.890625	-50.456993
6088.867188	-50.529858
6089.843750	-50.032436
6090.820312	-51.619259
6091.796875	-50.633686
6092.773438	-51.496655
6093.750000	-50.918793
6094.726562	-50.747700
6095.703125	-50.737144
6096.679688	-49.271374
6097.656250	-50.386620
6098.632812	-50.142216
6099.609375	-51.463116
6100.585938	-51.148136
6101.562500	-51.770813
6102.539062	-51.064404
6103.515625	-49.962212
6104.492188	-49.084435
6105.468750	-50.799412
6106.445312	-50.769882
6107.421875	-49.294853
6108.398438	-49.505081
6109.375000	-50.623840
6110.351562	-50.156132
6111.328125	-50.240105
6112.304688	-49.980007
6113.281250	-49.893341
6114.257812	-50.210255
6115.234375	-50.078686
6116.210938	-49.784233
6117.187500	-48.493713
6118.164062	-48.793961
6119.140625	-49.177349
6120.117188	-49.344822
6121.093750	-49.944202
6122.070312	-48.482170
6123.046875	-48.422569
6124.023438	-48.491394
6125.000000	-50.671761
6125.976562	-49.702957
6126.953125	-49.228104
6127.929688	-49.605202
6128.906250	-49.642380
6129.882812	-47.449543
6130.859375	-48.757633
6131.835938	-49.127010
6132.812500	-49.454266
6133.789062	-49.441402
6134.765625	-49.675529
6135.742188	-49.261185
6136.718750	-49.147930
6137.695312	-48.659771
6138.671875	-49.729176
6139.648438	-48.694016
6140.625000	-49.540348
6141.601562	-50.449749
6142.578125	-49.157486
6143.554688	-48.677166
6144.531250	-48.297531
6145.507812	-48.657993
6146.484375	-48.074295
6147.460938	-48.621773
6148.437500	-48.357944
6149.414062	-48.444115
6150.390625	-47.760876
6151.367188	-48.767719
6152.343750	-49.399330
6153.320312	-48.738007
6154.296875	-50.054535
6155.273438	-48.954159
6156.250000	-49.228706
6157.226562	-49.983620
6158.203125	-48.960030
6159.179688	-49.677647
6160.156250	-49.433765
6161.132812	-48.868790
6162.109375	-47.576427
6163.085938	-48.227940
6164.062500	-49.120319
6165.039062	-48.752342
6166.015625	-49.246647
6166.992188	-49.012024
6167.968750	-47.924976
6168.945312	-48.215816
6169.921875	-48.767036
6170.898438	-50.047554
6171.875000	-49.365746
6172.851562	-49.938763
6173.828125	-48.820213
6174.804688	-47.903419
6175.781250	-48.740215
6176.757812	-48.865818
6177.734375	-48.275925
6178.710938	-48.842876
6179.687500	-49.660809
6180.664062	-49.348892
6181.640625	-50.336029
6182.617188	-48.958889
6183.593750	-49.807716
6184.570312	-50.378780
6185.546875	-48.944714
6186.523438	-50.578026
6187.500000	-49.505749
6188.476562	-50.235710
6189.453125	-49.531120
6190.429688	-50.431194
6191.406250	-49.160469
6192.382812	-51.955585
6193.359375	-49.676575
6194.335938	-49.902599
6195.312500	-50.058311
6196.289062	-49.752884
6197.265625	-51.751724
6198.242188	-50.552185
6199.218750	-49.959789
6200.195312	-49.613083
6201.171875	-51.491074
6202.148438	-51.201550
6203.125000	-51.114059
6204.101562	-50.802422
6205.078125	-51.184711
6206.054688	-51.023106
6207.031250	-52.209591
6208.007812	-51.810844
6208.984375	-51.529461
6209.960938	-51.902954
6210.937500	-52.472149
6211.914062	-53.020042
6212.890625	-51.637001
6213.867188	-51.695385
6214.843750	-51.220879
6215.820312	-51.982525
6216.796875	-52.181389
6217.773438	-53.083454
6218.750000	-53.130440
6219.726562	-53.287102
6220.703125	-52.225029
6221.679688	-51.833389
6222.656250	-52.342854
6223.632812	-53.009502
6224.609375	-54.350117
6225.585938	-53.118702
6226.562500	-53.179886
6227.539062	-53.175762
6228.515625	-52.534924
6229.492188	-52.961147
6230.468750	-53.443752
6231.445312	-52.466824
6232.421875	-53.862911
6233.398438	-53.613354
6234.375000	-53.068031
6235.351562	-53.032982
6236.328125	-52.780674
6237.304688	-54.390720
6238.281250	-53.931419
6239.257812	-53.163277
6240.234375	-53.634209
6241.210938	-53.192291
6242.187500	-53.355034
6243.164062	-53.927116
6244.140625	-52.894505
6245.117188	-54.477596
6246.093750	-54.254898
6247.070312	-54.775391
6248.046875	-54.089268
6249.023438	-54.139256
6250.000000	-53.297157
6250.976562	-54.855206
6251.953125	-55.760357
6252.929688	-55.882072
6253.906250	-53.689480
6254.882812	-54.460655
6255.859375	-54.466724
6256.835938	-54.700661
6257.812500	-55.730522
6258.789062	-55.032063
6259.765625	-54.745060
6260.742188	-54.187397
6261.718750	-54.440704
6262.695312	-54.669220
6263.671875	-55.014015
6264.648438	-54.537857
6265.625000	-56.415993
6266.601562	-54.784603
6267.578125	-54.050735
6268.554688	-54.268703
6269.531250	-55.552513
6270.507812	-55.196201
6271.484375	-53.939816
6272.460938	-54.710453
6273.437500	-54.713909
6274.414062	-55.321278
6275.390625	-55.176796
6276.367188	-54.360313
6277.343750	-55.431515
6278.320312	-55.369247
6279.296875	-54.615036
6280.273438	-55.611809
6281.250000	-56.211430
6282.226562	-55.789894
6283.203125	-55.284630
6284.179688	-55.048256
6285.156250	-55.834522
6286.132812	-56.728073
6287.109375	-56.046288
6288.085938	-55.631248
6289.062500	-55.232841
6290.039062	-55.147182
6291.015625	-56.576145
6291.992188	-55.425026
6292.968750	-55.545551
6293.945312	-55.358624
6294.921875	-56.169968
6295.898438	-55.906902
6296.875000	-54.967609
6297.851562	-54.087166
6298.828125	-55.126301
6299.804688	-55.177704
6300.781250	-55.135868
6301.757812	-54.950352
6302.734375	-56.946342
6303.710938	-55.376846
6304.687500	-54.955170
6305.664062	-55.495327
6306.640625	-55.827183
6307.617188	-54.800499
6308.593750	-56.305882
6309.570312	-55.711224
6310.546875	-55.960396
6311.523438	-55.353817
6312.500000	-55.463036
6313.476562	-56.684280
6314.453125	-56.994431
6315.429688	-57.108150
6316.406250	-55.432251
6317.382812	-56.100704
6318.359375	-56.356010
6319.335938	-57.687248
6320.312500	-56.839447
6321.289062	-57.474438
6322.265625	-56.443062
6323.242188	-55.534626
6324.218750	-56.646832
6325.195312	-55.252422
6326.171875	-57.380039
6327.148438	-57.380947
6328.125000	-56.526428
6329.101562	-55.504917
6330.078125	-55.628265
6331.054688	-54.283772
6332.031250	-55.271072
6333.007812	-54.031990
6333.984375	-55.515888
6334.960938	-55.179138
6335.937500	-55.523838
6336.914062	-55.256020
6337.890625	-55.009018
6338.867188	-54.412090
6339.843750	-53.945023
6340.820312	-55.229889
6341.796875	-54.507133
6342.773438	-55.060654
6343.750000	-56.912743
6344.726562	-55.354313
6345.703125	-54.087341
6346.679688	-54.789730
6347.656250	-56.404865
6348.632812	-53.024239
6349.609375	-55.240402
6350.585938	-54.265129
6351.562500	-56.041435
6352.539062	-55.375656
6353.515625	-55.078987
6354.492188	-55.327415
6355.468750	-54.408203
6356.445312	-55.012463
6357.421875	-54.286739
6358.398438	-53.786938
6359.375000	-54.157776
6360.351562	-52.952862
6361.328125	-54.931343
6362.304688	-53.865395
6363.281250	-53.455227
6364.257812	-55.206703
6365.234375	-54.683270
6366.210938	-53.905502
6367.187500	-54.544224
6368.164062	-54.684273
6369.140625	-55.560963
6370.117188	-54.630749
6371.093750	-53.135857
6372.070312	-53.426697
6373.046875	-54.741962
6374.023438	-54.670040
6375.000000	-53.169880
6375.976562	-52.930134
6376.953125	-52.682911
6377.929688	-53.125343
6378.906250	-52.225430
6379.882812	-52.704353
6380.859375	-52.731155
6381.835938	-53.518898
6382.812500	-52.588387
6383.789062	-53.588379
6384.765625	-52.912571
6385.742188	-52.376129
6386.718750	-53.633133
6387.695312	-52.589432
6388.671875	-51.680103
6389.648438	-53.151123
6390.625000	-53.772556
6391.601562	-51.409492
6392.578125	-53.247841
6393.554688	-53.109875
6394.531250	-52.070324
6395.507812	-52.928375
6396.484375	-50.551208
6397.460938	-54.563736
6398.437500	-51.849003
6399.414062	-51.717800
6400.390625	-51.497448
6401.367188	-51.262970
6402.343750	-51.852905
6403.320312	-50.920521
6404.296875	-52.015701
6405.273438	-51.880192
6406.250000	-51.526680
6407.226562	-51.789070
6408.203125	-52.683723
6409.179688	-53.382729
6410.156250	-52.131752
6411.132812	-52.361279
6412.109375	-51.734684
6413.085938	-50.388313
6414.062500	-51.074978
6415.039062	-51.208748
6416.015625	-51.102795
6416.992188	-52.423004
6417.968750	-51.054268
6418.945312	-51.481441
6419.921875	-50.842728
6420.898438	-51.863373
6421.875000	-52.316498
6422.851562	-52.260860
6423.828125	-51.297604
6424.804688	-51.925758
6425.781250	-52.362282
6426.757812	-52.346558
6427.734375	-51.472443
6428.710938	-51.698242
6429.687500	-52.954948
6430.664062	-51.416252
6431.640625	-52.454956
6432.617188	-51.026688
6433.593750	-52.430855
6434.570312	-52.497002
6435.546875	-52.738216
6436.523438	-51.604843
6437.500000	-52.069561
6438.476562	-52.600258
6439.453125	-51.347820
6440.429688	-52.743736
6441.406250	-53.014996
6442.382812	-53.111729
6443.359375	-52.017185
6444.335938	-52.098095
6445.312500	-53.595444
6446.289062	-53.822182
6447.265625	-53.118347
6448.242188	-53.752678
6449.218750	-54.629429
6450.195312	-54.931259
6451.171875	-54.057911
6452.148438	-54.654369
6453.125000	-55.202705
6454.101562	-55.025578
6455.078125	-55.110085
6456.054688	-55.037563
6457.031250	-55.585155
6458.007812	-55.612694
6458.984375	-52.711533
6459.960938	-56.094780
6460.937500	-54.537914
6461.914062	-55.005634
6462.890625	-55.443577
6463.867188	-56.202286
6464.843750	-55.321495
6465.820312	-53.741650
6466.796875	-55.267624
6467.773438	-56.246895
6468.750000	-54.990360
6469.726562	-54.513775
6470.703125	-55.124401
6471.679688	-55.820892
6472.656250	-55.307545
6473.632812	-56.784046
6474.609375	-55.930119
6475.585938	-56.774315
6476.562500	-56.494884
6477.539062	-57.171566
6478.515625	-56.770878
6479.492188	-56.281807
6480.468750	-55.910454
6481.445312	-56.143406
6482.421875	-56.522388
6483.398438	-56.893169
6484.375000	-56.792412
6485.351562	-58.193333
6486.328125	-57.349861
6487.304688	-57.711399
6488.281250	-56.879539
6489.257812	-57.123291
6490.234375	-57.165997
6491.210938	-57.891819
6492.187500	-57.064491
6493.164062	-57.594471
6494.140625	-57.620171
6495.117188	-58.239658
6496.093750	-59.395054
6497.070312	-57.150669
6498.046875	-57.868484
6499.023438	-57.029755
6500.000000	-57.849907
6500.976562	-57.631344
6501.953125	-60.134342
6502.929688	-59.479660
6503.906250	-58.315334
6504.882812	-59.023071
6505.859375	-59.351475
6506.835938	-58.067673
6507.812500	-58.931538
6508.789062	-59.243126
6509.765625	-58.374516
6510.742188	-59.277767
6511.718750	-58.743565
6512.695312	-58.623039
6513.671875	-59.745766
6514.648438	-59.018536
6515.625000	-60.047100
6516.601562	-60.542744
6517.578125	-59.027676
6518.554688	-59.969193
6519.531250	-61.172783
6520.507812	-59.844002
6521.484375	-59.403893
6522.460938	-59.296253
6523.437500	-60.091137
6524.414062	-59.098347
6525.390625	-59.785076
6526.367188	-60.536854
6527.343750	-59.350506
6528.320312	-61.011803
6529.296875	-59.287968
6530.273438	-61.190823
6531.250000	-58.977905
6532.226562	-60.126808
6533.203125	-61.041691
6534.179688	-59.693623
6535.156250	-60.381065
6536.132812	-61.974373
6537.109375	-61.403706
6538.085938	-59.261932
6539.062500	-60.525181
6540.039062	-60.121227
6541.015625	-60.539154
6541.992188	-60.484100
6542.968750	-61.402580
6543.945312	-61.966473
6544.921875	-61.174858
6545.898438	-61.071095
6546.875000	-60.886971
6547.851562	-60.472069
6548.828125	-60.534290
6549.804688	-60.661854
6550.781250	-60.353485
6551.757812	-61.312981
6552.734375	-60.358845
6553.710938	-61.100307
6554.687500	-61.342266
6555.664062	-61.178581
6556.640625	-62.146107
6557.617188	-62.616436
6558.593750	-60.845100
6559.570312	-61.378502
6560.546875	-61.556713
6561.523438	-60.551659
6562.500000	-61.456379
6563.476562	-61.363392
6564.453125	-61.852482
6565.429688	-61.667931
6566.406250	-60.450653
6567.382812	-61.795895
6568.359375	-60.485634
6569.335938	-61.941544
6570.312500	-61.522514
6571.289062	-61.260983
6572.265625	-60.567242
6573.242188	-61.376942
6574.218750	-61.128853
6575.195312	-61.661594
6576.171875	-61.359516
6577.148438	-61.404671
6578.125000	-61.554607
6579.101562	-61.002056
6580.078125	-60.827518
6581.054688	-62.009861
6582.031250	-60.787090
6583.007812	-61.700813
6583.984375	-61.440754
6584.960938	-60.889507
6585.937500	-59.872089
6586.914062	-61.375637
6587.890625	-61.134930
6588.867188	-61.317131
6589.843750	-59.998859
6590.820312	-60.454559
6591.796875	-60.709396
6592.773438	-60.268188
6593.750000	-59.645561
6594.726562	-60.784275
6595.703125	-60.018116
6596.679688	-61.164616
6597.656250	-61.115833
6598.632812	-60.990379
6599.609375	-60.191532
6600.585938	-61.532211
6601.562500	-60.953838
6602.539062	-61.614040
6603.515625	-60.194466
6604.492188	-61.291725
6605.468750	-59.827396
6606.445312	-60.174534
6607.421875	-60.463512
6608.398438	-60.675934
6609.375000	-59.670223
6610.351562	-59.617012
6611.328125	-59.350880
6612.304688	-60.615753
6613.281250	-59.134121
6614.257812	-60.045975
6615.234375	-60.258507
6616.210938	-58.689735
6617.187500	-60.031277
6618.164062	-59.866142
6619.140625	-60.534916
6620.117188	-59.743202
6621.093750	-58.631977
6622.070312	-59.435307
6623.046875	-59.055435
6624.023438	-60.881622
6625.000000	-59.273663
6625.976562	-58.952866
6626.953125	-59.407791
6627.929688	-59.095119
6628.906250	-58.264107
6629.882812	-59.156837
6630.859375	-58.656567
6631.835938	-59.483273
6632.812500	-58.215923
6633.789062	-58.690887
6634.765625	-57.716106
6635.742188	-58.212627
6636.718750	-58.148766
6637.695312	-57.900196
6638.671875	-58.158043
6639.648438	-59.293507
6640.625000	-57.839481
6641.601562	-58.855564
6642.578125	-57.727699
6643.554688	-58.322388
6644.531250	-57.313671
6645.507812	-58.330811
6646.484375	-56.787056
6647.460938	-56.940411
6648.437500	-56.959839
6649.414062	-57.006706
6650.390625	-56.657036
6651.367188	-56.387501
6652.343750	-56.293510
6653.320312	-56.880356
6654.296875	-56.873211
6655.273438	-57.479729
6656.250000	-55.540966
6657.226562	-57.381413
6658.203125	-56.752590
6659.179688	-56.321377
6660.156250	-57.017448
6661.132812	-55.936020
6662.109375	-58.023849
6663.085938	-56.167046
6664.062500	-56.554310
6665.039062	-58.186634
6666.015625	-57.165775
6666.992188	-56.775593
6667.968750	-56.816151
6668.945312	-56.810287
6669.921875	-56.015316
6670.898438	-56.541111
6671.875000	-56.495392
6672.851562	-57.679127
6673.828125	-56.855885
6674.804688	-57.602409
6675.781250	-56.240948
6676.757812	-55.289074
6677.734375	-56.147728
6678.710938	-55.479958
6679.687500	-56.287457
6680.664062	-55.725319
6681.640625	-56.989311
6682.617188	-55.456699
6683.593750	-56.200718
6684.570312	-56.868095
6685.546875	-56.983776
6686.523438	-56.251747
6687.500000	-55.960468
6688.476562	-55.318562
6689.453125	-55.401562
6690.429688	-57.727585
6691.406250	-58.794392
6692.382812	-57.283279
6693.359375	-56.053959
6694.335938	-57.491180
6695.312500	-58.087738
6696.289062	-56.512928
6697.265625	-56.914085
6698.242188	-58.231083
6699.218750	-57.708145
6700.195312	-57.701157
6701.171875	-58.357086
6702.148438	-57.408543
6703.125000	-59.007629
6704.101562	-58.038754
6705.078125	-57.209759
6706.054688	-58.241772
6707.031250	-58.947060
6708.007812	-58.407589
6708.984375	-58.986874
6709.960938	-58.471134
6710.937500	-60.480736
6711.914062	-59.222855
6712.890625	-58.786674
6713.867188	-60.408951
6714.843750	-59.230991
6715.820312	-60.158466
6716.796875	-60.018093
6717.773438	-59.452515
6718.750000	-60.712009
6719.726562	-61.775394
6720.703125	-60.419422
6721.679688	-60.111664
6722.656250	-61.640774
6723.632812	-60.953686
6724.609375	-60.661346
6725.585938	-61.291687
6726.562500	-62.193050
6727.539062	-60.111076
6728.515625	-62.143726
6729.492188	-61.493095
6730.468750	-62.053692
6731.445312	-62.861603
6732.421875	-61.188564
6733.398438	-62.133739
6734.375000	-62.626045
6735.351562	-62.335125
6736.328125	-62.095402
6737.304688	-61.613956
6738.281250	-62.940964
6739.257812	-62.355274
6740.234375	-63.732506
6741.210938	-63.088669
6742.187500	-62.935390
6743.164062	-62.457199
6744.140625	-62.499004
6745.117188	-63.235737
6746.093750	-62.729469
6747.070312	-62.753174
6748.046875	-65.393791
6749.023438	-63.278309
6750.000000	-63.017124
6750.976562	-63.424885
6751.953125	-65.198128
6752.929688	-63.838707
6753.906250	-65.017563
6754.882812	-63.695599
6755.859375	-63.663345
6756.835938	-63.806515
6757.812500	-65.332672
6758.789062	-65.041153
6759.765625	-64.813026
6760.742188	-65.063141
6761.718750	-64.397232
6762.695312	-64.745667
6763.671875	-65.363297
6764.648438	-64.709541
6765.625000	-64.185341
6766.601562	-64.742836
6767.578125	-64.785881
6768.554688	-64.852890
6769.531250	-65.641731
6770.507812	-65.553658
6771.484375	-65.362000
6772.460938	-66.129730
6773.437500	-65.310913
6774.414062	-66.827286
6775.390625	-65.841240
6776.367188	-66.445076
6777.343750	-65.634178
6778.320312	-65.818253
6779.296875	-65.386078
6780.273438	-67.345825
6781.250000	-66.985786
6782.226562	-67.339363
6783.203125	-66.278847
6784.179688	-66.740501
6785.156250	-66.415367
6786.132812	-66.524635
6787.109375	-67.202423
6788.085938	-65.989594
6789.062500	-66.152336
6790.039062	-66.194923
6791.015625	-66.292152
6791.992188	-66.306458
6792.968750	-67.530083
6793.945312	-66.698265
6794.921875	-67.304893
6795.898438	-65.473976
6796.875000	-66.236069
6797.851562	-66.321754
6798.828125	-66.664108
6799.804688	-67.115715
6800.781250	-66.698624
6801.757812	-67.398354
6802.734375	-66.747437
6803.710938	-65.666946
6804.687500	-67.775635
6805.664062	-67.863647
6806.640625	-66.111641
6807.617188	-68.150848
6808.593750	-67.921791
6809.570312	-66.360580
6810.546875	-66.433540
6811.523438	-68.377029
6812.500000	-67.565628
6813.476562	-67.503944
6814.453125	-67.726952
6815.429688	-68.030853
6816.406250	-67.206825
6817.382812	-66.916916
6818.359375	-67.339027
6819.335938	-66.852043
6820.312500	-67.090530
6821.289062	-67.968010
6822.265625	-67.405235
6823.242188	-67.679878
6824.218750	-67.694748
6825.195312	-67.068741
6826.171875	-67.469910
6827.148438	-67.264984
6828.125000	-68.115128
6829.101562	-67.284401
6830.078125	-67.414841
6831.054688	-67.212219
6832.031250	-67.106102
6833.007812	-68.032074
6833.984375	-67.028122
6834.960938	-67.584915
6835.937500	-66.779579
6836.914062	-67.028091
6837.890625	-68.990059
6838.867188	-68.845016
6839.843750	-67.208519
6840.820312	-68.045952
6841.796875	-67.142952
6842.773438	-67.804199
6843.750000	-68.129791
6844.726562	-68.233002
6845.703125	-68.773300
6846.679688	-68.252136
6847.656250	-67.549301
6848.632812	-67.534370
6849.609375	-68.158760
6850.585938	-67.119179
6851.562500	-67.160896
6852.539062	-68.006943
6853.515625	-67.893349
6854.492188	-67.922844
6855.468750	-67.685150
6856.445312	-67.564545
6857.421875	-66.819145
6858.398438	-67.297386
6859.375000	-66.815987
6860.351562	-67.299271
6861.328125	-66.013039
6862.304688	-68.460403
6863.281250	-67.167534
6864.257812	-67.322472
6865.234375	-67.491302
6866.210938	-66.664902
6867.187500	-67.461105
6868.164062	-67.790962
6869.140625	-67.011024
6870.117188	-67.865921
6871.093750	-68.192390
6872.070312	-67.352364
6873.046875	-67.925514
6874.023438	-66.655106
6875.000000	-67.774933
6875.976562	-67.789131
6876.953125	-67.663963
6877.929688	-66.482574
6878.906250	-65.195862
6879.882812	-66.377426
6880.859375	-66.788956
6881.835938	-64.825783
6882.812500	-65.777206
6883.789062	-65.980598
6884.765625	-66.278244
6885.742188	-65.708588
6886.718750	-67.511871
6887.695312	-65.989166
6888.671875	-65.963951
6889.648438	-65.463806
6890.625000	-66.103104
6891.601562	-65.829666
6892.578125	-66.433746
6893.554688	-66.367386
6894.531250	-65.593803
6895.507812	-66.465919
6896.484375	-66.806602
6897.460938	-65.573898
6898.437500	-64.839195
6899.414062	-65.438148
6900.390625	-65.058403
6901.367188	-63.756683
6902.343750	-64.880371
6903.320312	-65.215553
6904.296875	-63.712288
6905.273438	-64.080544
6906.250000	-64.941010
6907.226562	-65.560402
6908.203125	-63.143700
6909.179688	-64.205002
6910.156250	-64.880867
6911.132812	-64.384102
6912.109375	-64.331429
6913.085938	-63.919697
6914.062500	-64.607040
6915.039062	-64.331001
6916.015625	-63.825638
6916.992188	-63.233936
6917.968750	-64.354012
6918.945312	-63.495472
6919.921875	-63.960407
6920.898438	-63.665180
6921.875000	-62.749516
6922.851562	-62.706940
6923.828125	-64.901840
6924.804688	-62.997341
6925.781250	-62.284550
6926.757812	-63.311829
6927.734375	-61.653587
6928.710938	-62.717373
6929.687500	-64.059464
6930.664062	-63.780533
6931.640625	-62.672195
6932.617188	-62.277973
6933.593750	-63.092274
6934.570312	-63.014317
6935.546875	-63.603519
6936.523438	-64.067734
6937.500000	-62.510654
6938.476562	-61.985775
6939.453125	-63.222519
6940.429688	-62.297791
6941.406250	-62.927589
6942.382812	-63.696022
6943.359375	-61.340355
6944.335938	-62.515259
6945.312500	-64.264275
6946.289062	-64.053123
6947.265625	-64.615593
6948.242188	-63.119942
6949.218750	-63.898529
6950.195312	-63.954708
6951.171875	-62.851173
6952.148438	-63.749287
6953.125000	-64.075027
6954.101562	-63.613892
6955.078125	-63.917618
6956.054688	-63.726231
6957.031250	-63.810032
6958.007812	-64.213440
6958.984375	-64.640732
6959.960938	-65.786697
6960.937500	-64.335022
6961.914062	-65.289749
6962.890625	-64.985405
6963.867188	-65.568489
6964.843750	-65.909782
6965.820312	-66.099945
6966.796875	-64.766068
6967.773438	-64.957184
6968.750000	-65.672478
6969.726562	-66.017143
6970.703125	-66.590996
6971.679688	-66.862076
6972.656250	-66.025879
6973.632812	-66.610909
6974.609375	-66.705818
6975.585938	-67.520218
6976.562500	-66.886230
6977.539062	-67.355469
6978.515625	-68.303619
6979.492188	-67.411858
6980.468750	-66.780998
6981.445312	-68.191383
6982.421875	-67.564636
6983.398438	-68.769943
6984.375000	-68.086548
6985.351562	-69.137802
6986.328125	-68.469383
6987.304688	-68.159691
6988.281250	-68.265625
6989.257812	-68.827133
6990.234375	-68.748337
6991.210938	-67.974922
6992.187500	-69.370628
6993.164062	-70.312904
6994.140625	-69.820999
6995.117188	-69.018433
6996.093750	-70.287521
6997.070312	-69.555267
6998.046875	-70.449097
6999.023438	-69.868019
7000.000000	-70.119736
7000.976562	-70.119156
7001.953125	-70.622612
7002.929688	-70.208145
7003.906250	-70.615944
7004.882812	-70.201721
7005.859375	-70.630882
7006.835938	-70.731041
7007.812500	-71.736145
7008.789062	-73.098984
7009.765625	-72.119202
7010.742188	-71.572395
7011.718750	-71.627075
7012.695312	-72.000031
7013.671875	-72.102608
7014.648438	-70.640251
7015.625000	-71.467819
7016.601562	-73.264931
7017.578125	-72.385666
7018.554688	-73.326492
7019.531250	-71.865990
7020.507812	-73.175575
7021.484375	-73.234261
7022.460938	-72.575264
7023.437500	-72.338196
7024.414062	-72.042061
7025.390625	-73.414375
7026.367188	-72.867813
7027.343750	-73.214516
7028.320312	-72.228455
7029.296875	-73.752785
7030.273438	-74.239288
7031.250000	-73.228851
7032.226562	-73.043373
7033.203125	-74.321114
7034.179688	-73.741478
7035.156250	-73.752052
7036.132812	-75.358803
7037.109375	-73.665115
7038.085938	-73.902107
7039.062500	-73.861954
7040.039062	-74.544937
7041.015625	-74.409668
7041.992188	-74.250053
7042.968750	-73.982292
7043.945312	-74.202873
7044.921875	-76.372749
7045.898438	-74.004478
7046.875000	-74.169167
7047.851562	-75.827621
7048.828125	-74.658249
7049.804688	-74.436356
7050.781250	-75.128036
7051.757812	-75.470604
7052.734375	-75.096542
7053.710938	-74.358559
7054.687500	-74.754967
7055.664062	-74.238892
7056.640625	-74.529228
7057.617188	-75.182503
7058.593750	-75.491058
7059.570312	-75.959808
7060.546875	-74.956863
7061.523438	-75.382553
7062.500000	-75.626884
7063.476562	-75.207039
7064.453125	-76.323280
7065.429688	-76.653008
7066.406250	-75.298264
7067.382812	-76.822403
7068.359375	-75.976349
7069.335938	-75.823837
7070.312500	-74.798439
7071.289062	-76.070000
7072.265625	-75.917465
7073.242188	-76.138565
7074.218750	-75.424004
7075.195312	-76.786484
7076.171875	-76.031883
7077.148438	-76.700516
7078.125000	-77.159485
7079.101562	-77.115845
7080.078125	-75.981766
7081.054688	-77.242172
7082.031250	-77.885254
7083.007812	-76.730110
7083.984375	-76.515282
7084.960938	-76.538353
7085.937500	-76.865829
7086.914062	-76.304459
7087.890625	-77.014374
7088.867188	-76.152603
7089.843750	-76.637665
7090.820312	-76.901718
7091.796875	-75.453117
7092.773438	-76.143791
7093.750000	-76.856361
7094.726562	-76.376091
7095.703125	-75.883026
7096.679688	-76.685547
7097.656250	-75.885582
7098.632812	-76.384727
7099.609375	-75.892387
7100.585938	-76.494095
7101.562500	-75.639084
7102.539062	-76.677750
7103.515625	-77.043884
7104.492188	-77.206306
7105.468750	-76.786583
7106.445312	-77.089645
7107.421875	-77.531006
7108.398438	-77.111740
7109.375000	-77.278244
7110.351562	-78.036751
7111.328125	-77.442268
7112.304688	-76.416328
7113.281250	-77.287071
7114.257812	-76.794243
7115.234375	-76.926292
7116.210938	-77.860901
7117.187500	-77.636490
7118.164062	-75.080238
7119.140625	-76.535042
7120.117188	-78.153900
7121.093750	-76.087585
7122.070312	-76.787735
7123.046875	-77.256310
7124.023438	-78.078568
7125.000000	-76.598923
7125.976562	-77.037422
7126.953125	-75.890099
7127.929688	-76.084457
7128.906250	-76.479683
7129.882812	-76.823792
7130.859375	-75.876556
7131.835938	-76.444839
7132.812500	-77.057541
7133.789062	-77.524033
7134.765625	-76.873436
7135.742188	-76.754532
7136.718750	-76.300629
7137.695312	-77.004730
7138.671875	-76.535896
7139.648438	-77.519615
7140.625000	-76.302322
7141.601562	-77.319977
7142.578125	-77.212410
7143.554688	-75.807465
7144.531250	-75.102097
7145.507812	-75.787247
7146.484375	-76.320740
7147.460938	-75.111298
7148.437500	-75.056572
7149.414062	-75.968552
7150.390625	-75.601654
7151.367188	-75.782501
7152.343750	-74.863136
7153.320312	-75.726440
7154.296875	-75.861496
7155.273438	-74.929604
7156.250000	-76.491257
7157.226562	-76.325615
7158.203125	-75.105888
7159.179688	-75.027489
7160.156250	-75.062347
7161.132812	-75.318916
7162.109375	-75.712440
7163.085938	-74.628143
7164.062500	-74.583000
7165.039062	-74.501457
7166.015625	-73.605721
7166.992188	-74.812141
7167.968750	-74.045624
7168.945312	-74.463264
7169.921875	-75.802711
7170.898438	-74.564445
7171.875000	-74.970367
7172.851562	-75.484474
7173.828125	-74.083794
7174.804688	-74.601112
7175.781250	-73.419998
7176.757812	-74.141220
7177.734375	-74.189835
7178.710938	-73.764061
7179.687500	-73.529770
7180.664062	-74.037857
7181.640625	-72.930656
7182.617188	-73.442261
7183.593750	-72.777908
7184.570312	-73.313828
7185.546875	-72.799080
7186.523438	-73.959831
7187.500000	-72.271896
7188.476562	-72.517044
7189.453125	-73.381592
7190.429688	-72.397087
7191.406250	-72.546997
7192.382812	-72.884033
7193.359375	-71.492622
7194.335938	-72.440247
7195.312500	-72.030342
7196.289062	-72.128838
7197.265625	-72.891609
7198.242188	-72.512367
7199.218750	-73.940323
7200.195312	-72.372963
7201.171875	-72.260574
7202.148438	-72.996666
7203.125000	-72.390244
7204.101562	-73.591232
7205.078125	-72.429726
7206.054688	-73.461861
7207.031250	-73.370842
7208.007812	-72.815346
7208.984375	-73.777611
7209.960938	-73.704575
7210.937500	-73.737648
7211.914062	-73.899826
7212.890625	-72.635315
7213.867188	-74.214188
7214.843750	-73.959274
7215.820312	-73.948776
7216.796875	-73.424881
7217.773438	-74.227325
7218.750000	-72.626648
7219.726562	-74.317085
7220.703125	-74.664246
7221.679688	-73.824753
7222.656250	-75.019005
7223.632812	-75.304504
7224.609375	-75.220345
7225.585938	-75.349464
7226.562500	-76.539566
7227.539062	-75.577538
7228.515625	-76.599503
7229.492188	-75.423149
7230.468750	-76.420326
7231.445312	-77.420319
7232.421875	-76.941078
7233.398438	-75.888824
7234.375000	-75.970253
7235.351562	-76.550529
7236.328125	-76.331009
7237.304688	-76.549835
7238.281250	-76.238441
7239.257812	-77.636925
7240.234375	-77.039742
7241.210938	-77.940201
7242.187500	-78.658119
7243.164062	-78.739815
7244.140625	-78.629631
7245.117188	-78.966011
7246.093750	-78.356262
7247.070312	-77.409271
7248.046875	-78.567314
7249.023438	-79.349556
7250.000000	-78.712219
7250.976562	-78.758247
7251.953125	-78.866371
7252.929688	-78.505585
7253.906250	-79.350868
7254.882812	-79.785118
7255.859375	-81.436890
7256.835938	-79.877274
7257.812500	-79.555008
7258.789062	-79.425629
7259.765625	-79.506531
7260.742188	-81.184196
7261.718750	-80.594254
7262.695312	-80.556839
7263.671875	-79.946228
7264.648438	-80.276093
7265.625000	-80.465019
7266.601562	-81.214119
7267.578125	-81.413223
7268.554688	-80.627838
7269.531250	-82.308701
7270.507812	-83.033051
7271.484375	-81.116257
7272.460938	-81.599831
7273.437500	-81.736443
7274.414062	-83.181969
7275.390625	-82.420815
7276.367188	-81.993599
7277.343750	-81.896729
7278.320312	-82.622711
7279.296875	-83.249962
7280.273438	-82.815399
7281.250000	-81.553795
7282.226562	-83.008072
7283.203125	-83.446640
7284.179688	-83.997421
7285.156250	-84.041214
7286.132812	-83.714737
7287.109375	-82.948723
7288.085938	-83.150635
7289.062500	-83.880188
7290.039062	-83.289719
7291.015625	-84.563522
7291.992188	-83.923431
7292.968750	-84.072647
7293.945312	-84.209618
7294.921875	-84.543228
7295.898438	-85.697212
7296.875000	-84.740082
7297.851562	-84.089973
7298.828125	-84.127480
7299.804688	-85.160255
7300.781250	-83.480698
7301.757812	-84.251152
7302.734375	-84.262039
7303.710938	-84.139641
7304.687500	-84.245293
7305.664062	-84.906799
7306.640625	-85.507416
7307.617188	-84.184311
7308.593750	-84.812630
7309.570312	-86.308823
7310.546875	-84.617775
7311.523438	-85.876450
7312.500000	-84.622673
7313.476562	-85.032135
7314.453125	-85.167992
7315.429688	-85.445061
7316.406250	-85.083076
7317.382812	-85.162415
7318.359375	-85.846657
7319.335938	-85.006912
7320.312500	-86.163139
7321.289062	-86.004013
7322.265625	-85.005524
7323.242188	-86.324440
7324.218750	-86.378716
7325.195312	-85.490242
7326.171875	-85.716766
7327.148438	-86.750633
7328.125000	-86.701805
7329.101562	-86.778519
7330.078125	-86.620842
7331.054688	-86.801170
7332.031250	-85.641418
7333.007812	-86.487587
7333.984375	-86.489609
7334.960938	-85.594536
7335.937500	-86.508690
7336.914062	-85.477394
7337.890625	-85.799149
7338.867188	-84.938316
7339.843750	-86.030228
7340.820312	-86.037910
7341.796875	-86.117592
7342.773438	-86.230598
7343.750000	-86.872749
7344.726562	-87.294220
7345.703125	-86.878265
7346.679688	-86.751343
7347.656250	-86.858772
7348.632812	-86.943619
7349.609375	-86.700287
7350.585938	-88.451996
7351.562500	-87.378014
7352.539062	-87.921463
7353.515625	-86.540627
7354.492188	-87.154427
7355.468750	-85.832603
7356.445312	-87.714668
7357.421875	-86.542114
7358.398438	-86.758339
7359.375000	-86.762527
7360.351562	-87.035271
7361.328125	-87.928764
7362.304688	-86.483528
7363.281250	-86.205292
7364.257812	-87.802940
7365.234375	-87.542770
7366.210938	-87.026421
7367.187500	-86.622414
7368.164062	-86.935379
7369.140625	-87.901665
7370.117188	-86.752876
7371.093750	-87.759918
7372.070312	-86.091484
7373.046875	-87.018051
7374.023438	-86.173859
7375.000000	-86.570450
7375.976562	-86.666489
7376.953125	-86.132317
7377.929688	-87.712509
7378.906250	-88.336746
7379.882812	-87.762131
7380.859375	-86.923630
7381.835938	-86.602806
7382.812500	-88.342987
7383.789062	-88.336060
7384.765625	-86.998886
7385.742188	-87.714561
7386.718750	-87.896980
7387.695312	-88.406906
7388.671875	-87.266472
7389.648438	-87.275871
7390.625000	-87.745026
7391.601562	-87.641724
7392.578125	-86.927315
7393.554688	-87.302444
7394.531250	-87.836853
7395.507812	-87.603310
7396.484375	-87.312332
7397.460938	-87.985016
7398.437500	-86.337730
7399.414062	-87.948128
7400.390625	-87.016380
7401.367188	-87.163780
7402.343750	-87.025711
7403.320312	-87.616730
7404.296875	-87.016747
7405.273438	-87.229057
7406.250000	-87.768669
7407.226562	-86.672592
7408.203125	-86.815033
7409.179688	-87.357391
7410.156250	-87.532074
7411.132812	-86.007172
7412.109375	-88.192680
7413.085938	-86.906670
7414.062500	-86.527206
7415.039062	-88.363869
7416.015625	-87.267471
7416.992188	-86.732452
7417.968750	-87.360840
7418.945312	-87.638069
7419.921875	-87.362732
7420.898438	-87.513359
7421.875000	-86.820229
7422.851562	-86.125854
7423.828125	-86.545982
7424.804688	-87.457703
7425.781250	-86.728531
7426.757812	-86.240311
7427.734375	-87.198578
7428.710938	-87.274437
7429.687500	-86.758163
7430.664062	-87.081451
7431.640625	-86.031464
7432.617188	-86.798622
7433.593750	-87.522011
7434.570312	-86.127220
7435.546875	-86.335861
7436.523438	-86.756966
7437.500000	-86.675362
7438.476562	-86.427788
7439.453125	-86.013016
7440.429688	-85.306015
7441.406250	-87.376419
7442.382812	-86.032898
7443.359375	-86.102448
7444.335938	-86.750313
7445.312500	-85.882492
7446.289062	-85.509308
7447.265625	-84.808823
7448.242188	-86.605576
7449.218750	-85.423141
7450.195312	-86.484665
7451.171875	-87.186592
7452.148438	-86.041054
7453.125000	-86.311890
7454.101562	-86.326225
7455.078125	-87.026993
7456.054688	-84.857941
7457.031250	-85.897179
7458.007812	-86.860443
7458.984375	-85.431381
7459.960938	-84.924805
7460.937500	-85.534081
7461.914062	-85.025383
7462.890625	-85.201195
7463.867188	-85.452774
7464.843750	-85.243332
7465.820312	-85.450943
7466.796875	-85.557091
7467.773438	-86.308662
7468.750000	-86.195534
7469.726562	-86.734650
7470.703125	-86.343857
7471.679688	-86.792404
7472.656250	-86.294601
7473.632812	-84.548027
7474.609375	-85.512566
7475.585938	-87.808746
7476.562500	-87.009216
7477.539062	-86.569954
7478.515625	-86.305313
7479.492188	-86.702080
7480.468750	-86.250549
7481.445312	-87.341629
7482.421875	-86.473976
7483.398438	-87.109840
7484.375000	-87.234840
7485.351562	-86.413132
7486.328125	-87.012840
7487.304688	-85.968216
7488.281250	-88.068344
7489.257812	-88.078667
7490.234375	-87.911499
7491.210938	-86.988029
7492.187500	-88.641197
7493.164062	-87.676186
7494.140625	-87.764107
7495.117188	-87.230995
7496.093750	-88.925323
7497.070312	-88.987419
7498.046875	-89.189087
7499.023438	-88.666351
7500.000000	-89.385223
7500.976562	-88.616982
7501.953125	-89.873573
7502.929688	-90.240326
7503.906250	-89.741570
7504.882812	-88.322304
7505.859375	-88.968590
7506.835938	-89.282272
7507.812500	-89.562729
7508.789062	-90.335701
7509.765625	-89.110443
7510.742188	-90.468750
7511.718750	-89.977493
7512.695312	-89.431122
7513.671875	-89.770782
7514.648438	-90.852089
7515.625000	-90.112770
7516.601562	-90.120125
7517.578125	-90.150688
7518.554688	-90.336929
7519.531250	-90.574448
7520.507812	-89.622383
7521.484375	-89.979408
7522.460938	-90.711990
7523.437500	-90.166023
7524.414062	-90.462967
7525.390625	-90.045624
7526.367188	-89.862427
7527.343750	-91.184029
7528.320312	-90.815498
7529.296875	-90.611763
7530.273438	-90.683327
7531.250000	-90.997292
7532.226562	-90.968597
7533.203125	-91.042770
7534.179688	-90.902283
7535.156250	-91.179146
7536.132812	-90.283974
7537.109375	-90.944588
7538.085938	-90.466087
7539.062500	-91.634796
7540.039062	-90.985710
7541.015625	-91.216499
7541.992188	-91.469139
7542.968750	-90.924515
7543.945312	-91.361244
7544.921875	-90.770004
7545.898438	-91.499863
7546.875000	-91.247009
7547.851562	-91.125465
7548.828125	-91.324059
7549.804688	-91.366081
7550.781250	-90.922874
7551.757812	-90.548561
7552.734375	-91.362373
7553.710938	-91.511360
7554.687500	-91.230354
7555.664062	-91.383125
7556.640625	-91.752350
7557.617188	-91.569412
7558.593750	-91.666634
7559.570312	-91.728127
7560.546875	-91.442505
7561.523438	-91.854851
7562.500000	-91.471565
7563.476562	-91.509933
7564.453125	-91.557037
7565.429688	-91.777534
7566.406250	-91.368637
7567.382812	-91.966042
7568.359375	-91.556656
7569.335938	-91.474083
7570.312500	-91.460045
7571.289062	-91.737366
7572.265625	-91.282097
7573.242188	-91.962151
7574.218750	-91.692932
7575.195312	-91.166153
7576.171875	-91.649712
7577.148438	-91.681900
7578.125000	-91.495911
7579.101562	-91.988876
7580.078125	-91.641205
7581.054688	-91.617371
7582.031250	-91.821556
7583.007812	-91.472664
7583.984375	-91.714691
7584.960938	-91.715248
7585.937500	-91.831505
7586.914062	-91.876015
7587.890625	-91.836884
7588.867188	-91.889496
7589.843750	-91.685471
7590.820312	-91.433746
7591.796875	-91.623848
7592.773438	-91.641518
7593.750000	-91.880440
7594.726562	-91.484268
7595.703125	-91.727524
7596.679688	-91.886032
7597.656250	-91.583939
7598.632812	-92.160492
7599.609375	-91.769058
7600.585938	-91.964340
7601.562500	-91.693581
7602.539062	-91.624641
7603.515625	-92.102089
7604.492188	-91.818489
7605.468750	-91.783875
7606.445312	-91.708878
7607.421875	-91.865570
7608.398438	-91.768440
7609.375000	-91.863243
7610.351562	-91.900284
7611.328125	-91.881294
7612.304688	-92.013634
7613.281250	-91.599419
7614.257812	-91.785820
7615.234375	-91.897346
7616.210938	-92.141327
7617.187500	-91.841827
7618.164062	-91.831528
7619.140625	-91.740608
7620.117188	-91.793114
7621.093750	-91.805527
7622.070312	-91.697960
7623.046875	-91.884819
7624.023438	-91.738609
7625.000000	-91.989784
7625.976562	-91.707069
7626.953125	-91.996147
7627.929688	-92.015488
7628.906250	-91.998650
7629.882812	-91.919525
7630.859375	-91.873337
7631.835938	-92.066147
7632.812500	-92.047394
7633.789062	-91.970619
7634.765625	-92.033760
7635.742188	-92.051376
7636.718750	-91.938225
7637.695312	-92.127144
7638.671875	-91.857506
7639.648438	-92.120438
7640.625000	-91.873543
7641.601562	-91.800720
7642.578125	-92.036781
7643.554688	-91.937622
7644.531250	-92.019440
7645.507812	-92.057304
7646.484375	-91.873085
7647.460938	-92.000275
7648.437500	-92.023399
7649.414062	-92.020592
7650.390625	-91.932167
7651.367188	-92.053139
7652.343750	-92.001953
7653.320312	-92.146812
7654.296875	-91.968864
7655.273438	-92.023064
7656.250000	-91.889542
7657.226562	-92.076912
7658.203125	-91.920540
7659.179688	-92.016045
7660.156250	-92.056168
7661.132812	-92.247955
7662.109375	-92.081673
7663.085938	-92.022713
7664.062500	-92.194046
7665.039062	-92.063591
7666.015625	-92.026093
7666.992188	-92.170815
7667.968750	-92.062454
7668.945312	-92.000969
7669.921875	-92.063690
7670.898438	-91.917473
7671.875000	-92.076378
7672.851562	-92.055840
7673.828125	-92.130585
7674.804688	-91.934013
7675.781250	-92.092773
7676.757812	-92.135208
7677.734375	-92.033752
7678.710938	-92.051613
7679.687500	-92.075508
7680.664062	-92.092682
7681.640625	-92.133911
7682.617188	-92.079247
7683.593750	-92.139328
7684.570312	-92.046196
7685.546875	-92.058479
7686.523438	-92.172844
7687.500000	-91.923897
7688.476562	-92.002396
7689.453125	-92.145744
7690.429688	-92.134132
7691.406250	-92.104149
7692.382812	-92.117676
7693.359375	-92.032425
7694.335938	-92.115387
7695.312500	-92.142769
7696.289062	-92.077972
7697.265625	-92.115524
7698.242188	-92.180977
7699.218750	-92.163414
7700.195312	-92.147011
7701.171875	-92.057823
7702.148438	-92.062881
7703.125000	-92.080536
7704.101562	-92.063232
7705.078125	-92.094894
7706.054688	-92.102829
7707.031250	-92.105301
7708.007812	-92.086868
7708.984375	-92.178558
7709.960938	-92.103600
7710.937500	-92.236877
7711.914062	-92.216530
7712.890625	-92.083382
7713.867188	-92.153862
7714.843750	-92.151375
7715.820312	-92.133759
7716.796875	-92.103439
7717.773438	-92.160553
7718.750000	-92.094109
7719.726562	-92.096619
7720.703125	-92.144676
7721.679688	-92.097084
7722.656250	-92.074745
7723.632812	-92.092697
7724.609375	-92.241066
7725.585938	-92.157455
7726.562500	-92.150055
7727.539062	-92.139778
7728.515625	-92.143776
7729.492188	-92.205490
7730.468750	-92.183311
7731.445312	-92.155243
7732.421875	-92.116386
7733.398438	-92.084946
7734.375000	-92.152794
7735.351562	-92.117844
7736.328125	-92.178383
7737.304688	-92.206039
7738.281250	-92.160889
7739.257812	-92.171036
7740.234375	-92.143715
7741.210938	-92.160507
7742.187500	-92.154999
7743.164062	-92.191750
7744.140625	-92.185089
7745.117188	-92.134254
7746.093750	-92.159645
7747.070312	-92.210342
7748.046875	-92.190536
7749.023438	-92.190224
7750.000000	-92.184860
7750.976562	-92.160385
7751.953125	-92.182983
7752.929688	-92.154648
7753.906250	-92.173584
7754.882812	-92.163895
7755.859375	-92.172562
7756.835938	-92.196716
7757.812500	-92.192291
7758.789062	-92.175568
7759.765625	-92.186836
7760.742188	-92.202530
7761.718750	-92.197823
7762.695312	-92.207924
7763.671875	-92.188751
7764.648438	-92.197166
7765.625000	-92.199699
7766.601562	-92.209991
7767.578125	-92.198013
7768.554688	-92.194458
7769.531250	-92.212090
7770.507812	-92.211861
7771.484375	-92.209297
7772.460938	-92.187523
7773.437500	-92.185623
7774.414062	-92.217133
7775.390625	-92.198563
7776.367188	-92.220154
7777.343750	-92.218452
7778.320312	-92.194458
7779.296875	-92.207268
7780.273438	-92.206894
7781.250000	-92.215752
7782.226562	-92.219627
7783.203125	-92.217789
7784.179688	-92.205574
7785.156250	-92.218567
7786.132812	-92.216606
7787.109375	-92.213272
7788.085938	-92.224701
7789.062500	-92.219612
7790.039062	-92.228973
7791.015625	-92.224594
7791.992188	-92.224876
7792.968750	-92.234459
7793.945312	-92.219856
7794.921875	-92.224693
7795.898438	-92.225136
7796.875000	-92.222038
7797.851562	-92.235428
7798.828125	-92.231163
7799.804688	-92.238579
7800.781250	-92.232437
7801.757812	-92.233643
7802.734375	-92.234543
7803.710938	-92.229576
7804.687500	-92.239594
7805.664062	-92.233482
7806.640625	-92.237198
7807.617188	-92.237236
7808.593750	-92.240456
7809.570312	-92.240021
7810.546875	-92.239693
7811.523438	-92.241127
7812.500000	-92.245262
7813.476562	-92.241875
7814.453125	-92.245621
7815.429688	-92.247887
7816.406250	-92.247551
7817.382812	-92.243553
7818.359375	-92.252312
7819.335938	-92.248680
7820.312500	-92.251122
7821.289062	-92.249504
7822.265625	-92.249466
7823.242188	-92.249748
7824.218750	-92.251801
7825.195312	-92.255737
7826.171875	-92.255501
7827.148438	-92.255928
7828.125000	-92.255112
7829.101562	-92.255852
7830.078125	-92.255989
7831.054688	-92.257263
7832.031250	-92.259796
7833.007812	-92.259583
7833.984375	-92.260773
7834.960938	-92.260361
7835.937500	-92.260788
7836.914062	-92.260872
7837.890625	-92.262070
7838.867188	-92.265388
7839.843750	-92.264297
7840.820312	-92.265800
7841.796875	-92.264832
7842.773438	-92.264618
7843.750000	-92.267120
7844.726562	-92.268715
7845.703125	-92.268707
7846.679688	-92.269669
7847.656250	-92.269577
7848.632812	-92.271935
7849.609375	-92.270477
7850.585938	-92.271454
7851.562500	-92.272263
7852.539062	-92.273491
7853.515625	-92.273048
7854.492188	-92.273613
7855.468750	-92.275497
7856.445312	-92.275879
7857.421875	-92.275612
7858.398438	-92.277107
7859.375000	-92.277458
7860.351562	-92.278336
7861.328125	-92.278664
7862.304688	-92.278908
7863.281250	-92.280533
7864.257812	-92.280327
7865.234375	-92.281326
7866.210938	-92.281853
7867.187500	-92.282127
7868.164062	-92.282166
7869.140625	-92.283424
7870.117188	-92.284294
7871.093750	-92.284065
7872.070312	-92.284683
7873.046875	-92.285309
7874.023438	-92.285744
7875.000000	-92.286659
7875.976562	-92.287247
7876.953125	-92.287628
7877.929688	-92.288368
7878.906250	-92.289078
7879.882812	-92.289215
7880.859375	-92.289825
7881.835938	-92.290459
7882.812500	-92.290779
7883.789062	-92.291313
7884.765625	-92.292007
7885.742188	-92.292343
7886.718750	-92.292709
7887.695312	-92.293327
7888.671875	-92.293854
7889.648438	-92.294189
7890.625000	-92.294716
7891.601562	-92.295067
7892.578125	-92.295593
7893.554688	-92.296227
7894.531250	-92.296539
7895.507812	-92.296974
7896.484375	-92.297508
7897.460938	-92.297752
7898.437500	-92.298454
7899.414062	-92.298645
7900.390625	-92.299179
7901.367188	-92.299477
7902.343750	-92.300102
7903.320312	-92.300491
7904.296875	-92.300865
7905.273438	-92.301300
7906.250000	-92.301605
7907.226562	-92.302071
7908.203125	-92.302429
7909.179688	-92.302864
7910.156250	-92.303268
7911.132812	-92.303696
7912.109375	-92.304024
7913.085938	-92.304405
7914.062500	-92.304787
7915.039062	-92.305084
7916.015625	-92.305504
7916.992188	-92.305847
7917.968750	-92.306206
7918.945312	-92.306549
7919.921875	-92.306870
7920.898438	-92.307251
7921.875000	-92.307587
7922.851562	-92.307953
7923.828125	-92.308258
7924.804688	-92.308563
7925.781250	-92.308876
7926.757812	-92.309219
7927.734375	-92.309509
7928.710938	-92.309837
7929.687500	-92.310158
7930.664062	-92.310440
7931.640625	-92.310738
7932.617188	-92.311005
7933.593750	-92.311317
7934.570312	-92.311600
7935.546875	-92.311859
7936.523438	-92.312141
7937.500000	-92.312401
7938.476562	-92.312668
7939.453125	-92.312943
7940.429688	-92.313194
7941.406250	-92.313423
7942.382812	-92.313660
7943.359375	-92.313919
7944.335938	-92.314194
7945.312500	-92.314400
7946.289062	-92.314636
7947.265625	-92.314857
7948.242188	-92.315094
7949.218750	-92.315315
7950.195312	-92.315521
7951.171875	-92.315742
7952.148438	-92.315933
7953.125000	-92.316139
7954.101562	-92.316338
7955.078125	-92.316528
7956.054688	-92.316727
7957.031250	-92.316895
7958.007812	-92.317070
7958.984375	-92.317268
7959.960938	-92.317451
7960.937500	-92.317604
7961.914062	-92.317764
7962.890625	-92.317924
7963.867188	-92.318092
7964.843750	-92.318245
7965.820312	-92.318413
7966.796875	-92.318550
7967.773438	-92.318672
7968.750000	-92.318825
7969.726562	-92.318939
7970.703125	-92.319084
7971.679688	-92.319214
7972.656250	-92.319313
7973.632812	-92.319427
7974.609375	-92.319542
7975.585938	-92.319656
7976.562500	-92.319763
7977.539062	-92.319832
7978.515625	-92.319954
7979.492188	-92.320030
7980.468750	-92.320114
7981.445312	-92.320175
7982.421875	-92.320274
7983.398438	-92.320343
7984.375000	-92.320412
7985.351562	-92.320480
7986.328125	-92.320534
7987.304688	-92.320610
7988.281250	-92.320648
7989.257812	-92.320679
7990.234375	-92.320755
7991.210938	-92.320778
7992.187500	-92.320808
7993.164062	-92.320854
7994.140625	-92.320869
7995.117188	-92.320885
7996.093750	-92.320923
7997.070312	-92.320930
7998.046875	-92.320946
7999.023438	-92.320953
